Temperature (K)	Pressure (atm)	Density (l, kg/m3)	Volume (l, m3/kg)	Internal Energy (l, kJ/mol)	Enthalpy (l, kJ/mol)	Entropy (l, J/mol*K)	Cv (l, J/mol*K)	Cp (l, J/mol*K)	Sound Spd. (l, m/s)	Joule-Thomson (l, F/atm)	Viscosity (l, Pa*s)	Therm. Cond. (l, W/m*K)	Surf. Tension (l, N/m)	Density (v, kg/m3)	Volume (v, m3/kg)	Internal Energy (v, kJ/mol)	Enthalpy (v, kJ/mol)	Entropy (v, J/mol*K)	Cv (v, J/mol*K)	Cp (v, J/mol*K)	Sound Spd. (v, m/s)	Joule-Thomson (v, F/atm)	Viscosity (v, Pa*s)	Therm. Cond. (v, W/m*K)
275.00	0.0068932	999.89	0.0010001	0.13978	0.13979	0.51000	75.903	75.915	1411.4	-0.043709	0.0016821	0.56022	0.075388	0.0055066	181.60	42.830	45.115	164.06	25.580	33.980	410.33	101.93	8.9986e-06	0.016879
276.00	0.0074025	999.91	0.0010001	0.21567	0.21568	0.78546	75.859	75.863	1416.1	-0.043538	0.0016272	0.56266	0.075247	0.0058922	169.71	42.855	45.148	163.59	25.595	33.998	411.05	98.745	9.0275e-06	0.016944
277.00	0.0079448	999.92	0.0010001	0.29151	0.29152	1.0597	75.814	75.814	1420.8	-0.043371	0.0015750	0.56504	0.075105	0.0063013	158.70	42.880	45.181	163.12	25.610	34.017	411.77	95.665	9.0566e-06	0.017008
278.00	0.0085220	999.92	0.0010001	0.36730	0.36732	1.3329	75.767	75.769	1425.3	-0.043207	0.0015255	0.56738	0.074963	0.0067349	148.48	42.905	45.214	162.65	25.626	34.035	412.49	92.691	9.0858e-06	0.017074
279.00	0.0091359	999.90	0.0010001	0.44305	0.44306	1.6048	75.719	75.727	1429.8	-0.043046	0.0014785	0.56967	0.074820	0.0071945	139.00	42.930	45.247	162.19	25.641	34.054	413.21	89.818	9.1152e-06	0.017139
280.00	0.0097885	999.86	0.0010001	0.51876	0.51877	1.8757	75.669	75.688	1434.1	-0.042887	0.0014337	0.57191	0.074677	0.0076812	130.19	42.954	45.280	161.74	25.657	34.073	413.92	87.044	9.1447e-06	0.017204
281.00	0.010482	999.81	0.0010002	0.59443	0.59444	2.1455	75.617	75.652	1438.3	-0.042732	0.0013911	0.57411	0.074533	0.0081963	122.01	42.979	45.313	161.29	25.672	34.092	414.64	84.367	9.1743e-06	0.017270
282.00	0.011218	999.75	0.0010003	0.67006	0.67008	2.4142	75.564	75.619	1442.5	-0.042579	0.0013504	0.57628	0.074388	0.0087414	114.40	43.004	45.346	160.84	25.688	34.111	415.35	81.783	9.2041e-06	0.017336
283.00	0.012000	999.67	0.0010003	0.74566	0.74569	2.6818	75.510	75.588	1446.5	-0.042429	0.0013117	0.57840	0.074243	0.0093178	107.32	43.028	45.379	160.40	25.704	34.131	416.06	79.289	9.2339e-06	0.017402
284.00	0.012829	999.58	0.0010004	0.82124	0.82126	2.9484	75.454	75.560	1450.4	-0.042281	0.0012746	0.58048	0.074097	0.0099270	100.74	43.053	45.412	159.96	25.720	34.150	416.77	76.883	9.2640e-06	0.017469
285.00	0.013709	999.47	0.0010005	0.89678	0.89681	3.2139	75.397	75.533	1454.3	-0.042135	0.0012393	0.58253	0.073951	0.010571	94.602	43.078	45.445	159.52	25.736	34.170	417.48	74.561	9.2941e-06	0.017535
286.00	0.014641	999.35	0.0010006	0.97230	0.97233	3.4784	75.339	75.509	1458.0	-0.041992	0.0012055	0.58454	0.073804	0.011250	88.887	43.102	45.478	159.09	25.752	34.190	418.18	72.322	9.3243e-06	0.017602
287.00	0.015628	999.22	0.0010008	1.0478	1.0478	3.7419	75.280	75.486	1461.7	-0.041850	0.0011731	0.58651	0.073656	0.011967	83.560	43.127	45.511	158.67	25.768	34.209	418.89	70.163	9.3547e-06	0.017669
288.00	0.016673	999.08	0.0010009	1.1233	1.1233	4.0045	75.219	75.465	1465.2	-0.041711	0.0011422	0.58845	0.073508	0.012724	78.592	43.152	45.544	158.24	25.784	34.230	419.59	68.080	9.3852e-06	0.017737
289.00	0.017779	998.92	0.0010011	1.1987	1.1988	4.2660	75.158	75.446	1468.7	-0.041574	0.0011125	0.59036	0.073359	0.013522	73.955	43.176	45.577	157.82	25.800	34.250	420.29	66.072	9.4158e-06	0.017804
290.00	0.018949	998.76	0.0010012	1.2742	1.2742	4.5266	75.095	75.429	1472.1	-0.041438	0.0010840	0.59224	0.073210	0.014363	69.625	43.201	45.609	157.41	25.816	34.270	420.99	64.135	9.4466e-06	0.017872
291.00	0.020186	998.58	0.0010014	1.3496	1.3496	4.7862	75.031	75.413	1475.4	-0.041304	0.0010567	0.59408	0.073060	0.015248	65.581	43.226	45.642	156.99	25.832	34.291	421.69	62.268	9.4774e-06	0.017940
292.00	0.021493	998.39	0.0010016	1.4250	1.4250	5.0449	74.966	75.398	1478.6	-0.041172	0.0010305	0.59590	0.072910	0.016181	61.801	43.250	45.675	156.59	25.849	34.311	422.38	60.468	9.5083e-06	0.018008
293.00	0.022874	998.19	0.0010018	1.5004	1.5004	5.3026	74.900	75.384	1481.7	-0.041042	0.0010053	0.59769	0.072759	0.017162	58.267	43.275	45.708	156.18	25.865	34.332	423.08	58.733	9.5394e-06	0.018077
294.00	0.024331	997.98	0.0010020	1.5758	1.5758	5.5595	74.833	75.372	1484.8	-0.040913	0.00098111	0.59945	0.072607	0.018195	54.960	43.299	45.740	155.78	25.882	34.353	423.77	57.060	9.5705e-06	0.018146
295.00	0.025870	997.76	0.0010022	1.6511	1.6512	5.8154	74.765	75.361	1487.7	-0.040785	0.00095783	0.60118	0.072455	0.019281	51.865	43.324	45.773	155.38	25.898	34.374	424.46	55.447	9.6018e-06	0.018214
296.00	0.027492	997.53	0.0010025	1.7265	1.7265	6.0704	74.696	75.351	1490.6	-0.040659	0.00093543	0.60288	0.072302	0.020422	48.966	43.348	45.806	154.99	25.915	34.396	425.15	53.892	9.6332e-06	0.018284
297.00	0.029203	997.29	0.0010027	1.8018	1.8019	6.3245	74.627	75.342	1493.4	-0.040534	0.00091386	0.60456	0.072149	0.021621	46.251	43.373	45.838	154.60	25.932	34.417	425.84	52.394	9.6646e-06	0.018353
298.00	0.031006	997.04	0.0010030	1.8772	1.8772	6.5777	74.556	75.334	1496.1	-0.040411	0.00089309	0.60621	0.071995	0.022881	43.705	43.397	45.871	154.21	25.948	34.439	426.52	50.949	9.6962e-06	0.018423
299.00	0.032906	996.78	0.0010032	1.9525	1.9526	6.8301	74.484	75.327	1498.8	-0.040289	0.00087306	0.60784	0.071841	0.024203	41.318	43.422	45.904	153.82	25.965	34.461	427.21	49.556	9.7278e-06	0.018493
300.00	0.034906	996.51	0.0010035	2.0278	2.0279	7.0816	74.412	75.320	1501.4	-0.040168	0.00085375	0.60944	0.071686	0.025590	39.078	43.446	45.936	153.44	25.982	34.483	427.89	48.214	9.7596e-06	0.018563
301.00	0.037011	996.23	0.0010038	2.1031	2.1032	7.3322	74.339	75.315	1503.9	-0.040049	0.00083512	0.61102	0.071530	0.027045	36.976	43.471	45.969	153.07	25.999	34.505	428.57	46.919	9.7914e-06	0.018633
302.00	0.039226	995.95	0.0010041	2.1785	2.1785	7.5820	74.265	75.310	1506.3	-0.039930	0.00081714	0.61258	0.071374	0.028570	35.002	43.495	46.001	152.69	26.017	34.527	429.25	45.671	9.8233e-06	0.018704
303.00	0.041555	995.65	0.0010044	2.2538	2.2538	7.8310	74.190	75.306	1508.6	-0.039813	0.00079978	0.61411	0.071218	0.030169	33.147	43.520	46.034	152.32	26.034	34.550	429.93	44.468	9.8553e-06	0.018775
304.00	0.044003	995.35	0.0010047	2.3291	2.3291	8.0791	74.114	75.302	1510.9	-0.039696	0.00078300	0.61562	0.071060	0.031844	31.403	43.544	46.066	151.95	26.051	34.573	430.61	43.308	9.8874e-06	0.018846
305.00	0.046576	995.03	0.0010050	2.4044	2.4044	8.3264	74.038	75.300	1513.1	-0.039581	0.00076679	0.61711	0.070903	0.033598	29.764	43.568	46.099	151.59	26.069	34.596	431.28	42.188	9.9196e-06	0.018918
306.00	0.049279	994.71	0.0010053	2.4797	2.4798	8.5729	73.960	75.298	1515.3	-0.039466	0.00075111	0.61857	0.070744	0.035434	28.222	43.593	46.131	151.23	26.086	34.620	431.95	41.109	9.9519e-06	0.018989
307.00	0.052117	994.38	0.0010057	2.5550	2.5551	8.8185	73.883	75.296	1517.4	-0.039353	0.00073595	0.62002	0.070586	0.037355	26.770	43.617	46.164	150.87	26.104	34.643	432.62	40.068	9.9842e-06	0.019061
308.00	0.055095	994.04	0.0010060	2.6303	2.6304	9.0634	73.804	75.295	1519.4	-0.039240	0.00072128	0.62144	0.070426	0.039365	25.403	43.641	46.196	150.51	26.122	34.667	433.29	39.064	1.0017e-05	0.019133
309.00	0.058219	993.70	0.0010063	2.7055	2.7057	9.3075	73.725	75.295	1521.3	-0.039128	0.00070708	0.62284	0.070266	0.041466	24.116	43.666	46.229	150.16	26.140	34.691	433.96	38.095	1.0049e-05	0.019206
310.00	0.061496	993.34	0.0010067	2.7808	2.7810	9.5507	73.645	75.294	1523.2	-0.039017	0.00069332	0.62422	0.070106	0.043663	22.903	43.690	46.261	149.81	26.158	34.716	434.63	37.160	1.0082e-05	0.019279
311.00	0.064932	992.98	0.0010071	2.8561	2.8563	9.7932	73.564	75.295	1525.0	-0.038907	0.00068000	0.62558	0.069944	0.045958	21.759	43.714	46.293	149.46	26.177	34.741	435.29	36.257	1.0114e-05	0.019351
312.00	0.068532	992.61	0.0010074	2.9314	2.9316	10.035	73.483	75.296	1526.8	-0.038797	0.00066708	0.62692	0.069783	0.048355	20.680	43.738	46.325	149.12	26.195	34.766	435.95	35.386	1.0147e-05	0.019425
313.00	0.072303	992.23	0.0010078	3.0067	3.0069	10.276	73.401	75.297	1528.5	-0.038688	0.00065456	0.62824	0.069621	0.050858	19.663	43.763	46.358	148.78	26.214	34.791	436.61	34.545	1.0180e-05	0.019498
314.00	0.076252	991.85	0.0010082	3.0820	3.0822	10.516	73.318	75.299	1530.1	-0.038580	0.00064242	0.62954	0.069458	0.053470	18.702	43.787	46.390	148.44	26.233	34.817	437.27	33.734	1.0213e-05	0.019572
315.00	0.080386	991.46	0.0010086	3.1573	3.1575	10.756	73.235	75.301	1531.7	-0.038472	0.00063064	0.63082	0.069295	0.056195	17.795	43.811	46.422	148.10	26.252	34.843	437.93	32.949	1.0246e-05	0.019646
316.00	0.084711	991.06	0.0010090	3.2326	3.2328	10.994	73.151	75.304	1533.2	-0.038365	0.00061921	0.63208	0.069131	0.059038	16.938	43.835	46.454	147.77	26.271	34.870	438.58	32.192	1.0279e-05	0.019721
317.00	0.089236	990.65	0.0010094	3.3079	3.3081	11.232	73.067	75.307	1534.7	-0.038259	0.00060812	0.63333	0.068967	0.062001	16.129	43.859	46.486	147.44	26.291	34.897	439.24	31.461	1.0312e-05	0.019795
318.00	0.093967	990.24	0.0010099	3.3832	3.3834	11.469	72.982	75.310	1536.1	-0.038153	0.00059734	0.63455	0.068802	0.065090	15.363	43.883	46.518	147.11	26.310	34.924	439.89	30.754	1.0345e-05	0.019870
319.00	0.098913	989.81	0.0010103	3.4585	3.4587	11.706	72.897	75.313	1537.4	-0.038048	0.00058688	0.63576	0.068636	0.068309	14.639	43.907	46.550	146.79	26.330	34.952	440.54	30.070	1.0378e-05	0.019945
320.00	0.10408	989.39	0.0010107	3.5339	3.5340	11.941	72.811	75.317	1538.7	-0.037943	0.00057671	0.63695	0.068470	0.071662	13.954	43.931	46.582	146.47	26.350	34.980	441.18	29.410	1.0411e-05	0.020021
321.00	0.10948	988.95	0.0010112	3.6092	3.6094	12.176	72.724	75.322	1539.9	-0.037839	0.00056683	0.63812	0.068304	0.075152	13.306	43.955	46.614	146.15	26.371	35.008	441.83	28.771	1.0445e-05	0.020097
322.00	0.11512	988.51	0.0010116	3.6845	3.6847	12.411	72.637	75.326	1541.1	-0.037735	0.00055722	0.63927	0.068137	0.078786	12.693	43.979	46.646	145.83	26.392	35.037	442.47	28.154	1.0478e-05	0.020173
323.00	0.12100	988.06	0.0010121	3.7598	3.7600	12.644	72.550	75.331	1542.3	-0.037631	0.00054788	0.64041	0.067969	0.082567	12.111	44.003	46.678	145.52	26.413	35.067	443.11	27.557	1.0511e-05	0.020249
324.00	0.12714	987.61	0.0010125	3.8352	3.8354	12.877	72.462	75.336	1543.3	-0.037528	0.00053879	0.64152	0.067801	0.086500	11.561	44.027	46.710	145.21	26.434	35.097	443.75	26.979	1.0545e-05	0.020326
325.00	0.13355	987.15	0.0010130	3.9105	3.9107	13.109	72.374	75.342	1544.3	-0.037425	0.00052995	0.64262	0.067632	0.090590	11.039	44.051	46.742	144.90	26.456	35.127	444.39	26.419	1.0578e-05	0.020403
326.00	0.14022	986.68	0.0010135	3.9858	3.9861	13.341	72.285	75.347	1545.3	-0.037323	0.00052134	0.64371	0.067463	0.094842	10.544	44.074	46.773	144.59	26.477	35.158	445.02	25.878	1.0612e-05	0.020480
327.00	0.14719	986.21	0.0010140	4.0612	4.0615	13.572	72.196	75.353	1546.2	-0.037221	0.00051297	0.64477	0.067293	0.099261	10.074	44.098	46.805	144.29	26.500	35.190	445.66	25.354	1.0646e-05	0.020558
328.00	0.15445	985.73	0.0010145	4.1365	4.1368	13.802	72.107	75.360	1547.1	-0.037119	0.00050481	0.64582	0.067123	0.10385	9.6291	44.122	46.837	143.98	26.522	35.222	446.29	24.846	1.0679e-05	0.020636
329.00	0.16201	985.24	0.0010150	4.2119	4.2122	14.031	72.017	75.366	1547.9	-0.037017	0.00049687	0.64685	0.066952	0.10862	9.2064	44.146	46.868	143.68	26.545	35.254	446.92	24.355	1.0713e-05	0.020714
330.00	0.16988	984.75	0.0010155	4.2873	4.2876	14.260	71.927	75.373	1548.7	-0.036916	0.00048913	0.64787	0.066781	0.11357	8.8050	44.169	46.900	143.39	26.568	35.287	447.54	23.878	1.0747e-05	0.020793
331.00	0.17808	984.25	0.0010160	4.3626	4.3630	14.488	71.836	75.380	1549.4	-0.036815	0.00048159	0.64887	0.066609	0.11871	8.4238	44.193	46.931	143.09	26.592	35.321	448.17	23.417	1.0781e-05	0.020872
332.00	0.18661	983.75	0.0010165	4.4380	4.4384	14.715	71.745	75.387	1550.1	-0.036714	0.00047424	0.64985	0.066437	0.12404	8.0616	44.217	46.963	142.80	26.616	35.355	448.79	22.969	1.0815e-05	0.020951
333.00	0.19549	983.24	0.0010170	4.5134	4.5138	14.942	71.654	75.395	1550.7	-0.036613	0.00046707	0.65081	0.066264	0.12958	7.7174	44.240	46.994	142.51	26.640	35.390	449.41	22.535	1.0848e-05	0.021031
334.00	0.20473	982.72	0.0010176	4.5888	4.5892	15.168	71.563	75.403	1551.3	-0.036513	0.00046009	0.65176	0.066091	0.13532	7.3901	44.264	47.026	142.22	26.665	35.426	450.03	22.114	1.0882e-05	0.021111
335.00	0.21434	982.20	0.0010181	4.6642	4.6646	15.394	71.471	75.411	1551.9	-0.036412	0.00045328	0.65270	0.065917	0.14127	7.0788	44.287	47.057	141.94	26.690	35.462	450.64	21.706	1.0916e-05	0.021191
336.00	0.22432	981.67	0.0010187	4.7396	4.7400	15.618	71.379	75.420	1552.3	-0.036312	0.00044663	0.65362	0.065743	0.14743	6.7827	44.311	47.088	141.65	26.715	35.499	451.26	21.310	1.0950e-05	0.021272
337.00	0.23470	981.14	0.0010192	4.8150	4.8155	15.842	71.287	75.428	1552.8	-0.036212	0.00044015	0.65452	0.065568	0.15382	6.5009	44.334	47.119	141.37	26.741	35.536	451.87	20.926	1.0984e-05	0.021353
338.00	0.24549	980.60	0.0010198	4.8905	4.8909	16.066	71.194	75.437	1553.2	-0.036111	0.00043382	0.65540	0.065392	0.16045	6.2327	44.357	47.150	141.09	26.767	35.574	452.47	20.552	1.1019e-05	0.021435
339.00	0.25669	980.05	0.0010204	4.9659	4.9664	16.289	71.101	75.447	1553.6	-0.036011	0.00042764	0.65627	0.065216	0.16730	5.9772	44.381	47.181	140.82	26.794	35.613	453.08	20.190	1.1053e-05	0.021517
340.00	0.26832	979.50	0.0010209	5.0414	5.0419	16.511	71.008	75.456	1553.9	-0.035911	0.00042161	0.65713	0.065040	0.17440	5.7339	44.404	47.212	140.54	26.821	35.653	453.68	19.838	1.1087e-05	0.021599
341.00	0.28040	978.95	0.0010215	5.1168	5.1173	16.733	70.915	75.466	1554.2	-0.035811	0.00041573	0.65797	0.064863	0.18175	5.5020	44.427	47.243	140.27	26.848	35.693	454.28	19.496	1.1121e-05	0.021681
342.00	0.29293	978.39	0.0010221	5.1923	5.1928	16.954	70.822	75.476	1554.4	-0.035711	0.00040998	0.65879	0.064685	0.18936	5.2810	44.451	47.274	140.00	26.876	35.734	454.88	19.163	1.1155e-05	0.021764
343.00	0.30594	977.82	0.0010227	5.2678	5.2683	17.174	70.728	75.486	1554.6	-0.035611	0.00040436	0.65960	0.064508	0.19723	5.0703	44.474	47.305	139.73	26.905	35.776	455.48	18.840	1.1190e-05	0.021848
344.00	0.31943	977.25	0.0010233	5.3432	5.3438	17.394	70.635	75.497	1554.7	-0.035511	0.00039887	0.66039	0.064329	0.20537	4.8693	44.497	47.336	139.46	26.934	35.818	456.07	18.526	1.1224e-05	0.021931
345.00	0.33341	976.67	0.0010239	5.4187	5.4194	17.613	70.541	75.508	1554.9	-0.035411	0.00039351	0.66117	0.064150	0.21378	4.6776	44.520	47.367	139.20	26.963	35.862	456.67	18.221	1.1258e-05	0.022016
346.00	0.34792	976.09	0.0010245	5.4942	5.4949	17.831	70.447	75.519	1554.9	-0.035311	0.00038827	0.66194	0.063971	0.22249	4.4947	44.543	47.397	138.94	26.993	35.906	457.25	17.923	1.1293e-05	0.022100
347.00	0.36295	975.50	0.0010251	5.5698	5.5704	18.049	70.353	75.531	1555.0	-0.035210	0.00038315	0.66269	0.063791	0.23148	4.3200	44.566	47.428	138.68	27.024	35.951	457.84	17.634	1.1327e-05	0.022185
348.00	0.37852	974.90	0.0010257	5.6453	5.6460	18.267	70.259	75.542	1555.0	-0.035110	0.00037814	0.66342	0.063610	0.24077	4.1533	44.589	47.459	138.42	27.054	35.997	458.42	17.353	1.1361e-05	0.022270
349.00	0.39466	974.31	0.0010264	5.7208	5.7216	18.483	70.164	75.554	1554.9	-0.035009	0.00037324	0.66414	0.063429	0.25037	3.9940	44.612	47.489	138.16	27.086	36.043	459.01	17.079	1.1396e-05	0.022356
350.00	0.41137	973.70	0.0010270	5.7964	5.7972	18.700	70.070	75.567	1554.8	-0.034908	0.00036845	0.66484	0.063248	0.26029	3.8419	44.634	47.519	137.91	27.118	36.091	459.58	16.812	1.1430e-05	0.022442
351.00	0.42867	973.09	0.0010277	5.8719	5.8728	18.915	69.975	75.579	1554.7	-0.034808	0.00036377	0.66553	0.063066	0.27053	3.6965	44.657	47.550	137.65	27.150	36.139	460.16	16.552	1.1465e-05	0.022529
352.00	0.44658	972.48	0.0010283	5.9475	5.9484	19.130	69.881	75.592	1554.5	-0.034707	0.00035919	0.66621	0.062883	0.28110	3.5575	44.680	47.580	137.40	27.183	36.189	460.73	16.299	1.1499e-05	0.022616
353.00	0.46511	971.86	0.0010290	6.0231	6.0240	19.345	69.786	75.606	1554.4	-0.034605	0.00035470	0.66687	0.062700	0.29201	3.4246	44.703	47.610	137.15	27.217	36.239	461.30	16.052	1.1534e-05	0.022704
354.00	0.48428	971.24	0.0010296	6.0987	6.0996	19.559	69.692	75.619	1554.1	-0.034504	0.00035031	0.66751	0.062517	0.30326	3.2975	44.725	47.640	136.90	27.251	36.290	461.87	15.812	1.1568e-05	0.022792
355.00	0.50412	970.61	0.0010303	6.1743	6.1753	19.772	69.597	75.633	1553.9	-0.034402	0.00034602	0.66815	0.062333	0.31487	3.1759	44.748	47.670	136.66	27.286	36.342	462.44	15.577	1.1603e-05	0.022880
356.00	0.52463	969.97	0.0010310	6.2500	6.2510	19.985	69.502	75.648	1553.6	-0.034300	0.00034181	0.66876	0.062149	0.32685	3.0595	44.770	47.700	136.42	27.321	36.395	463.00	15.349	1.1637e-05	0.022969
357.00	0.54583	969.33	0.0010316	6.3256	6.3266	20.197	69.408	75.662	1553.2	-0.034198	0.00033769	0.66937	0.061964	0.33920	2.9481	44.793	47.730	136.17	27.357	36.449	463.56	15.126	1.1672e-05	0.023058
358.00	0.56775	968.69	0.0010323	6.4013	6.4023	20.408	69.313	75.677	1552.8	-0.034096	0.00033366	0.66996	0.061778	0.35193	2.8414	44.815	47.760	135.93	27.394	36.504	464.12	14.908	1.1707e-05	0.023148
359.00	0.59040	968.04	0.0010330	6.4769	6.4781	20.620	69.218	75.692	1552.4	-0.033993	0.00032971	0.67053	0.061592	0.36506	2.7393	44.837	47.790	135.69	27.431	36.560	464.67	14.696	1.1741e-05	0.023238
360.00	0.61380	967.39	0.0010337	6.5526	6.5538	20.830	69.124	75.708	1552.0	-0.033890	0.00032585	0.67109	0.061406	0.37858	2.6414	44.860	47.819	135.46	27.469	36.617	465.22	14.489	1.1776e-05	0.023329
361.00	0.63797	966.73	0.0010344	6.6283	6.6295	21.040	69.029	75.724	1551.5	-0.033786	0.00032206	0.67164	0.061219	0.39251	2.5477	44.882	47.849	135.22	27.507	36.675	465.77	14.286	1.1811e-05	0.023420
362.00	0.66293	966.06	0.0010351	6.7041	6.7053	21.250	68.934	75.740	1551.0	-0.033683	0.00031834	0.67217	0.061032	0.40686	2.4578	44.904	47.878	134.99	27.546	36.735	466.32	14.089	1.1845e-05	0.023512
363.00	0.68870	965.40	0.0010358	6.7798	6.7811	21.458	68.840	75.757	1550.5	-0.033579	0.00031471	0.67269	0.060844	0.42164	2.3717	44.926	47.908	134.76	27.586	36.795	466.86	13.896	1.1880e-05	0.023604
364.00	0.71530	964.72	0.0010366	6.8555	6.8569	21.667	68.745	75.774	1549.9	-0.033474	0.00031114	0.67320	0.060656	0.43686	2.2891	44.948	47.937	134.52	27.626	36.856	467.40	13.708	1.1915e-05	0.023697
365.00	0.74275	964.05	0.0010373	6.9313	6.9327	21.875	68.651	75.791	1549.3	-0.033369	0.00030765	0.67369	0.060467	0.45253	2.2098	44.970	47.966	134.30	27.667	36.919	467.93	13.523	1.1949e-05	0.023790
366.00	0.77108	963.36	0.0010380	7.0071	7.0086	22.082	68.556	75.809	1548.6	-0.033264	0.00030422	0.67417	0.060278	0.46865	2.1338	44.992	47.995	134.07	27.709	36.982	468.47	13.343	1.1984e-05	0.023884
367.00	0.80029	962.68	0.0010388	7.0829	7.0844	22.289	68.462	75.827	1548.0	-0.033159	0.00030086	0.67464	0.060088	0.48524	2.0608	45.014	48.024	133.84	27.752	37.047	469.00	13.167	1.2019e-05	0.023978
368.00	0.83042	961.98	0.0010395	7.1587	7.1603	22.495	68.368	75.845	1547.3	-0.033053	0.00029757	0.67509	0.059898	0.50231	1.9908	45.036	48.053	133.62	27.795	37.113	469.53	12.995	1.2053e-05	0.024073
369.00	0.86149	961.29	0.0010403	7.2346	7.2362	22.701	68.274	75.864	1546.5	-0.032946	0.00029434	0.67553	0.059708	0.51986	1.9236	45.057	48.082	133.40	27.839	37.180	470.05	12.827	1.2088e-05	0.024169
370.00	0.89351	960.59	0.0010410	7.3104	7.3121	22.906	68.180	75.883	1545.8	-0.032839	0.00029117	0.67596	0.059517	0.53792	1.8590	45.079	48.111	133.17	27.883	37.249	470.57	12.662	1.2123e-05	0.024265
371.00	0.92652	959.88	0.0010418	7.3863	7.3881	23.111	68.086	75.903	1545.0	-0.032732	0.00028806	0.67637	0.059325	0.55648	1.7970	45.101	48.140	132.95	27.929	37.318	471.09	12.501	1.2157e-05	0.024361
372.00	0.96053	959.17	0.0010426	7.4622	7.4640	23.315	67.992	75.923	1544.1	-0.032624	0.00028502	0.67677	0.059133	0.57557	1.7374	45.122	48.168	132.74	27.975	37.389	471.61	12.344	1.2192e-05	0.024458
373.00	0.99557	958.46	0.0010433	7.5381	7.5400	23.519	67.898	75.943	1543.3	-0.032516	0.00028203	0.67715	0.058941	0.59518	1.6802	45.143	48.197	132.52	28.022	37.462	472.12	12.189	1.2227e-05	0.024556
374.00	1.0317	957.74	0.0010441	7.6140	7.6160	23.723	67.805	75.964	1542.4	-0.032407	0.00027909	0.67753	0.058748	0.61534	1.6251	45.165	48.225	132.30	28.069	37.535	472.63	12.038	1.2262e-05	0.024654
375.00	1.0688	957.01	0.0010449	7.6900	7.6920	23.925	67.712	75.985	1541.5	-0.032297	0.00027621	0.67789	0.058555	0.63605	1.5722	45.186	48.254	132.09	28.118	37.610	473.13	11.890	1.2296e-05	0.024752
376.00	1.1071	956.29	0.0010457	7.7660	7.7681	24.128	67.618	76.007	1540.5	-0.032187	0.00027338	0.67823	0.058361	0.65732	1.5213	45.207	48.282	131.88	28.167	37.686	473.64	11.745	1.2331e-05	0.024852
377.00	1.1465	955.55	0.0010465	7.8420	7.8441	24.330	67.525	76.029	1539.6	-0.032077	0.00027061	0.67857	0.058166	0.67917	1.4724	45.228	48.310	131.67	28.217	37.763	474.14	11.603	1.2366e-05	0.024952
378.00	1.1870	954.82	0.0010473	7.9180	7.9202	24.531	67.432	76.052	1538.6	-0.031966	0.00026788	0.67889	0.057972	0.70161	1.4253	45.249	48.338	131.46	28.268	37.842	474.63	11.464	1.2401e-05	0.025052
379.00	1.2288	954.07	0.0010481	7.9940	7.9964	24.732	67.340	76.075	1537.5	-0.031854	0.00026521	0.67920	0.057777	0.72465	1.3800	45.270	48.366	131.25	28.319	37.923	475.12	11.327	1.2435e-05	0.025153
380.00	1.2717	953.33	0.0010490	8.0701	8.0725	24.932	67.247	76.098	1536.5	-0.031742	0.00026258	0.67950	0.057581	0.74830	1.3364	45.291	48.393	131.04	28.372	38.004	475.61	11.194	1.2470e-05	0.025255
381.00	1.3158	952.58	0.0010498	8.1461	8.1487	25.132	67.155	76.122	1535.4	-0.031629	0.00026000	0.67978	0.057385	0.77257	1.2944	45.312	48.421	130.83	28.425	38.087	476.10	11.062	1.2505e-05	0.025357
382.00	1.3612	951.82	0.0010506	8.2223	8.2249	25.332	67.062	76.146	1534.2	-0.031516	0.00025747	0.68005	0.057189	0.79748	1.2539	45.333	48.449	130.63	28.479	38.172	476.58	10.934	1.2540e-05	0.025460
383.00	1.4079	951.06	0.0010515	8.2984	8.3011	25.531	66.970	76.171	1533.1	-0.031402	0.00025498	0.68031	0.056992	0.82304	1.2150	45.353	48.476	130.43	28.534	38.258	477.06	10.807	1.2574e-05	0.025564
384.00	1.4559	950.30	0.0010523	8.3745	8.3773	25.729	66.878	76.196	1531.9	-0.031287	0.00025254	0.68056	0.056794	0.84926	1.1775	45.374	48.503	130.22	28.590	38.345	477.54	10.683	1.2609e-05	0.025668
385.00	1.5053	949.53	0.0010532	8.4507	8.4536	25.927	66.787	76.222	1530.7	-0.031171	0.00025013	0.68079	0.056596	0.87615	1.1414	45.395	48.531	130.02	28.647	38.434	478.01	10.562	1.2644e-05	0.025773
386.00	1.5559	948.76	0.0010540	8.5269	8.5299	26.125	66.695	76.248	1529.5	-0.031055	0.00024777	0.68101	0.056398	0.90372	1.1065	45.415	48.558	129.82	28.704	38.525	478.48	10.442	1.2678e-05	0.025878
387.00	1.6080	947.98	0.0010549	8.6031	8.6062	26.322	66.604	76.274	1528.2	-0.030939	0.00024545	0.68122	0.056199	0.93200	1.0730	45.435	48.585	129.63	28.763	38.617	478.95	10.325	1.2713e-05	0.025984
388.00	1.6615	947.20	0.0010557	8.6794	8.6826	26.519	66.513	76.301	1526.9	-0.030821	0.00024317	0.68142	0.056000	0.96099	1.0406	45.455	48.612	129.43	28.822	38.711	479.41	10.210	1.2748e-05	0.026091
389.00	1.7165	946.41	0.0010566	8.7557	8.7590	26.715	66.422	76.329	1525.6	-0.030703	0.00024093	0.68160	0.055801	0.99070	1.0094	45.476	48.638	129.23	28.883	38.806	479.87	10.097	1.2783e-05	0.026198
390.00	1.7730	945.62	0.0010575	8.8320	8.8354	26.911	66.331	76.357	1524.3	-0.030584	0.00023873	0.68178	0.055601	1.0212	0.97928	45.496	48.665	129.04	28.944	38.903	480.32	9.9854	1.2817e-05	0.026307
391.00	1.8309	944.83	0.0010584	8.9083	8.9118	27.107	66.241	76.385	1522.9	-0.030464	0.00023657	0.68194	0.055400	1.0524	0.95024	45.516	48.691	128.84	29.006	39.001	480.77	9.8761	1.2852e-05	0.026415
392.00	1.8904	944.03	0.0010593	8.9847	8.9883	27.302	66.151	76.414	1521.5	-0.030344	0.00023444	0.68209	0.055200	1.0843	0.92223	45.535	48.718	128.65	29.069	39.101	481.22	9.7687	1.2887e-05	0.026525
393.00	1.9515	943.23	0.0010602	9.0610	9.0648	27.497	66.061	76.444	1520.1	-0.030222	0.00023234	0.68222	0.054998	1.1171	0.89519	45.555	48.744	128.46	29.133	39.203	481.67	9.6631	1.2921e-05	0.026635
394.00	2.0141	942.42	0.0010611	9.1375	9.1414	27.691	65.971	76.473	1518.7	-0.030100	0.00023029	0.68235	0.054797	1.1506	0.86909	45.575	48.770	128.27	29.198	39.307	482.11	9.5592	1.2956e-05	0.026746
395.00	2.0784	941.61	0.0010620	9.2139	9.2179	27.884	65.882	76.504	1517.2	-0.029977	0.00022826	0.68246	0.054595	1.1850	0.84389	45.594	48.796	128.08	29.264	39.412	482.54	9.4570	1.2991e-05	0.026858
396.00	2.1444	940.79	0.0010629	9.2904	9.2945	28.078	65.793	76.535	1515.7	-0.029854	0.00022627	0.68256	0.054392	1.2202	0.81956	45.614	48.822	127.89	29.331	39.519	482.98	9.3564	1.3025e-05	0.026970
397.00	2.2121	939.97	0.0010639	9.3669	9.3712	28.271	65.704	76.566	1514.2	-0.029729	0.00022431	0.68265	0.054189	1.2562	0.79606	45.633	48.848	127.71	29.399	39.627	483.41	9.2575	1.3060e-05	0.027083
398.00	2.2815	939.15	0.0010648	9.4434	9.4478	28.463	65.615	76.599	1512.6	-0.029604	0.00022239	0.68273	0.053986	1.2931	0.77336	45.653	48.873	127.52	29.467	39.737	483.83	9.1601	1.3095e-05	0.027197
399.00	2.3526	938.32	0.0010657	9.5200	9.5245	28.655	65.526	76.631	1511.1	-0.029477	0.00022049	0.68280	0.053782	1.3308	0.75143	45.672	48.899	127.34	29.537	39.849	484.25	9.0643	1.3129e-05	0.027311
400.00	2.4256	937.49	0.0010667	9.5966	9.6013	28.847	65.438	76.664	1509.5	-0.029350	0.00021862	0.68285	0.053578	1.3694	0.73024	45.691	48.924	127.15	29.608	39.963	484.67	8.9699	1.3164e-05	0.027427
401.00	2.5003	936.65	0.0010676	9.6732	9.6781	29.039	65.350	76.698	1507.8	-0.029222	0.00021679	0.68290	0.053373	1.4089	0.70976	45.710	48.949	126.97	29.680	40.079	485.09	8.8769	1.3198e-05	0.027543
402.00	2.5770	935.81	0.0010686	9.7498	9.7549	29.229	65.263	76.732	1506.2	-0.029093	0.00021498	0.68293	0.053168	1.4494	0.68996	45.729	48.974	126.79	29.752	40.196	485.50	8.7854	1.3233e-05	0.027660
403.00	2.6555	934.96	0.0010696	9.8265	9.8317	29.420	65.175	76.767	1504.5	-0.028963	0.00021321	0.68295	0.052963	1.4907	0.67082	45.748	48.999	126.61	29.826	40.316	485.91	8.6952	1.3267e-05	0.027777
404.00	2.7360	934.11	0.0010705	9.9033	9.9086	29.610	65.088	76.802	1502.8	-0.028832	0.00021146	0.68296	0.052757	1.5330	0.65231	45.766	49.024	126.43	29.901	40.437	486.31	8.6063	1.3302e-05	0.027895
405.00	2.8184	933.26	0.0010715	9.9800	9.9855	29.800	65.001	76.838	1501.1	-0.028700	0.00020973	0.68296	0.052551	1.5763	0.63441	45.785	49.049	126.25	29.976	40.560	486.71	8.5187	1.3337e-05	0.028015
406.00	2.9028	932.40	0.0010725	10.057	10.062	29.989	64.914	76.874	1499.4	-0.028567	0.00020804	0.68294	0.052344	1.6205	0.61709	45.803	49.073	126.07	30.053	40.684	487.10	8.4323	1.3371e-05	0.028134
407.00	2.9893	931.54	0.0010735	10.134	10.139	30.178	64.828	76.911	1497.6	-0.028433	0.00020637	0.68292	0.052137	1.6657	0.60033	45.822	49.097	125.90	30.131	40.811	487.50	8.3472	1.3406e-05	0.028255
408.00	3.0779	930.67	0.0010745	10.210	10.217	30.367	64.742	76.949	1495.8	-0.028299	0.00020472	0.68288	0.051930	1.7120	0.58412	45.840	49.122	125.72	30.209	40.940	487.88	8.2633	1.3440e-05	0.028377
409.00	3.1685	929.80	0.0010755	10.287	10.294	30.555	64.656	76.987	1494.0	-0.028163	0.00020310	0.68284	0.051722	1.7593	0.56842	45.858	49.146	125.55	30.289	41.070	488.27	8.1805	1.3475e-05	0.028499
410.00	3.2613	928.92	0.0010765	10.364	10.371	30.743	64.570	77.026	1492.2	-0.028026	0.00020151	0.68278	0.051514	1.8076	0.55323	45.876	49.170	125.37	30.369	41.203	488.65	8.0988	1.3509e-05	0.028622
411.00	3.3563	928.04	0.0010775	10.441	10.448	30.931	64.485	77.065	1490.3	-0.027888	0.00019994	0.68271	0.051306	1.8569	0.53852	45.894	49.193	125.20	30.451	41.337	489.02	8.0183	1.3544e-05	0.028746
412.00	3.4535	927.16	0.0010786	10.518	10.525	31.118	64.400	77.105	1488.4	-0.027748	0.00019839	0.68263	0.051097	1.9074	0.52428	45.912	49.217	125.03	30.534	41.473	489.39	7.9388	1.3578e-05	0.028871
413.00	3.5530	926.27	0.0010796	10.595	10.602	31.305	64.315	77.146	1486.5	-0.027608	0.00019687	0.68254	0.050887	1.9589	0.51049	45.929	49.240	124.86	30.617	41.611	489.76	7.8603	1.3612e-05	0.028997
414.00	3.6548	925.38	0.0010806	10.672	10.680	31.491	64.231	77.187	1484.6	-0.027467	0.00019537	0.68244	0.050678	2.0116	0.49712	45.947	49.263	124.69	30.702	41.751	490.13	7.7829	1.3647e-05	0.029123
415.00	3.7589	924.48	0.0010817	10.750	10.757	31.677	64.147	77.229	1482.6	-0.027324	0.00019389	0.68233	0.050468	2.0654	0.48418	45.964	49.287	124.52	30.788	41.894	490.49	7.7065	1.3681e-05	0.029250
416.00	3.8653	923.58	0.0010827	10.827	10.834	31.863	64.063	77.271	1480.6	-0.027181	0.00019243	0.68220	0.050257	2.1203	0.47164	45.982	49.309	124.35	30.874	42.038	490.84	7.6311	1.3716e-05	0.029379
417.00	3.9742	922.67	0.0010838	10.904	10.912	32.048	63.980	77.314	1478.6	-0.027036	0.00019100	0.68207	0.050046	2.1764	0.45948	45.999	49.332	124.18	30.962	42.184	491.19	7.5566	1.3750e-05	0.029508
418.00	4.0856	921.76	0.0010849	10.981	10.989	32.233	63.896	77.358	1476.6	-0.026890	0.00018958	0.68193	0.049835	2.2336	0.44770	46.016	49.355	124.02	31.050	42.332	491.54	7.4830	1.3784e-05	0.029638
419.00	4.1994	920.85	0.0010860	11.058	11.067	32.418	63.813	77.402	1474.6	-0.026742	0.00018819	0.68177	0.049623	2.2921	0.43628	46.033	49.377	123.85	31.140	42.482	491.88	7.4103	1.3819e-05	0.029769
420.00	4.3158	919.93	0.0010870	11.136	11.144	32.602	63.731	77.447	1472.5	-0.026594	0.00018681	0.68161	0.049411	2.3518	0.42520	46.050	49.400	123.69	31.230	42.634	492.22	7.3386	1.3853e-05	0.029900
421.00	4.4347	919.01	0.0010881	11.213	11.222	32.786	63.648	77.493	1470.4	-0.026444	0.00018546	0.68143	0.049199	2.4128	0.41446	46.067	49.422	123.52	31.322	42.788	492.56	7.2677	1.3887e-05	0.030033
422.00	4.5563	918.08	0.0010892	11.290	11.300	32.970	63.566	77.539	1468.3	-0.026293	0.00018412	0.68124	0.048986	2.4750	0.40405	46.083	49.444	123.36	31.414	42.945	492.89	7.1977	1.3922e-05	0.030167
423.00	4.6805	917.15	0.0010903	11.368	11.377	33.153	63.484	77.586	1466.2	-0.026141	0.00018281	0.68105	0.048773	2.5384	0.39394	46.100	49.465	123.20	31.507	43.103	493.22	7.1285	1.3956e-05	0.030301
424.00	4.8074	916.21	0.0010915	11.445	11.455	33.336	63.403	77.634	1464.0	-0.025987	0.00018151	0.68084	0.048560	2.6032	0.38414	46.116	49.487	123.03	31.602	43.263	493.54	7.0601	1.3990e-05	0.030437
425.00	4.9371	915.27	0.0010926	11.523	11.533	33.519	63.322	77.682	1461.8	-0.025832	0.00018023	0.68062	0.048346	2.6693	0.37463	46.132	49.508	122.87	31.697	43.425	493.86	6.9925	1.4025e-05	0.030573
426.00	5.0695	914.33	0.0010937	11.601	11.611	33.701	63.241	77.731	1459.6	-0.025676	0.00017897	0.68039	0.048132	2.7367	0.36540	46.148	49.530	122.71	31.793	43.590	494.17	6.9257	1.4059e-05	0.030710
427.00	5.2048	913.38	0.0010948	11.678	11.689	33.883	63.160	77.781	1457.4	-0.025518	0.00017772	0.68016	0.047917	2.8055	0.35644	46.164	49.551	122.55	31.890	43.756	494.48	6.8597	1.4093e-05	0.030849
428.00	5.3430	912.43	0.0010960	11.756	11.766	34.065	63.080	77.831	1455.2	-0.025359	0.00017649	0.67991	0.047703	2.8757	0.34774	46.180	49.571	122.39	31.988	43.925	494.79	6.7944	1.4127e-05	0.030988
429.00	5.4840	911.47	0.0010971	11.834	11.845	34.246	63.000	77.882	1452.9	-0.025199	0.00017528	0.67965	0.047487	2.9473	0.33930	46.196	49.592	122.24	32.087	44.096	495.09	6.7299	1.4162e-05	0.031128
430.00	5.6280	910.51	0.0010983	11.911	11.923	34.427	62.920	77.934	1450.6	-0.025037	0.00017409	0.67938	0.047272	3.0202	0.33110	46.211	49.613	122.08	32.187	44.269	495.39	6.6662	1.4196e-05	0.031269
431.00	5.7750	909.54	0.0010995	11.989	12.001	34.608	62.841	77.987	1448.3	-0.024874	0.00017291	0.67923	0.047056	3.0947	0.32314	46.227	49.633	121.92	32.288	44.443	495.68	6.6031	1.4230e-05	0.031411
432.00	5.9251	908.57	0.0011006	12.067	12.079	34.789	62.762	78.040	1446.0	-0.024709	0.00017175	0.67901	0.046840	3.1705	0.31540	46.242	49.653	121.77	32.390	44.620	495.97	6.5407	1.4264e-05	0.031555
433.00	6.0783	907.60	0.0011018	12.145	12.157	34.969	62.683	78.094	1443.6	-0.024542	0.00017060	0.67877	0.046623	3.2479	0.30789	46.257	49.673	121.61	32.492	44.800	496.25	6.4791	1.4298e-05	0.031699
434.00	6.2345	906.62	0.0011030	12.223	12.235	35.149	62.604	78.149	1441.2	-0.024375	0.00016947	0.67850	0.046406	3.3268	0.30059	46.272	49.693	121.46	32.596	44.981	496.53	6.4181	1.4333e-05	0.031844
435.00	6.3940	905.63	0.0011042	12.301	12.314	35.328	62.526	78.205	1438.8	-0.024205	0.00016835	0.67822	0.046189	3.4072	0.29350	46.287	49.712	121.30	32.700	45.164	496.81	6.3578	1.4367e-05	0.031990
436.00	6.5567	904.65	0.0011054	12.379	12.392	35.507	62.448	78.261	1436.4	-0.024034	0.00016725	0.67793	0.045971	3.4891	0.28660	46.301	49.732	121.15	32.805	45.350	497.08	6.2981	1.4401e-05	0.032137
437.00	6.7227	903.65	0.0011066	12.457	12.471	35.686	62.371	78.318	1434.0	-0.023862	0.00016616	0.67763	0.045754	3.5726	0.27990	46.316	49.751	121.00	32.911	45.537	497.35	6.2391	1.4435e-05	0.032286
438.00	6.8920	902.66	0.0011078	12.535	12.549	35.865	62.293	78.376	1431.5	-0.023687	0.00016509	0.67731	0.045535	3.6578	0.27339	46.330	49.770	120.84	33.018	45.727	497.61	6.1808	1.4469e-05	0.032435
439.00	7.0647	901.65	0.0011091	12.613	12.628	36.044	62.216	78.435	1429.0	-0.023511	0.00016403	0.67699	0.045317	3.7445	0.26706	46.345	49.789	120.69	33.126	45.919	497.87	6.1231	1.4503e-05	0.032585
440.00	7.2408	900.65	0.0011103	12.692	12.706	36.222	62.140	78.495	1426.5	-0.023334	0.00016298	0.67665	0.045098	3.8329	0.26090	46.359	49.807	120.54	33.234	46.114	498.12	6.0660	1.4537e-05	0.032737
441.00	7.4203	899.64	0.0011116	12.770	12.785	36.400	62.063	78.555	1424.0	-0.023155	0.00016195	0.67630	0.044879	3.9229	0.25491	46.373	49.826	120.39	33.343	46.310	498.37	6.0095	1.4571e-05	0.032889
442.00	7.6034	898.62	0.0011128	12.848	12.864	36.577	61.987	78.616	1421.5	-0.022974	0.00016093	0.67594	0.044659	4.0146	0.24909	46.387	49.844	120.24	33.453	46.508	498.61	5.9536	1.4606e-05	0.033043
443.00	7.7900	897.60	0.0011141	12.927	12.943	36.754	61.912	78.678	1418.9	-0.022791	0.00015992	0.67557	0.044439	4.1080	0.24343	46.400	49.862	120.09	33.564	46.709	498.86	5.8984	1.4640e-05	0.033198
444.00	7.9802	896.58	0.0011153	13.005	13.022	36.931	61.836	78.741	1416.3	-0.022607	0.00015893	0.67519	0.044219	4.2032	0.23791	46.414	49.880	119.95	33.676	46.912	499.09	5.8437	1.4674e-05	0.033353
445.00	8.1741	895.55	0.0011166	13.084	13.101	37.108	61.761	78.805	1413.7	-0.022420	0.00015795	0.67481	0.043999	4.3001	0.23255	46.427	49.897	119.80	33.788	47.117	499.32	5.7896	1.4708e-05	0.033510
446.00	8.3717	894.52	0.0011179	13.162	13.180	37.285	61.686	78.869	1411.1	-0.022232	0.00015698	0.67441	0.043778	4.3988	0.22733	46.440	49.914	119.65	33.902	47.325	499.55	5.7360	1.4742e-05	0.033668
447.00	8.5730	893.48	0.0011192	13.241	13.259	37.461	61.612	78.935	1408.4	-0.022042	0.00015602	0.67400	0.043557	4.4993	0.22225	46.454	49.932	119.50	34.016	47.534	499.77	5.6831	1.4776e-05	0.033828
448.00	8.7782	892.44	0.0011205	13.320	13.338	37.637	61.538	79.001	1405.8	-0.021850	0.00015507	0.67358	0.043335	4.6017	0.21731	46.466	49.949	119.36	34.130	47.746	499.99	5.6307	1.4810e-05	0.033988
449.00	8.9872	891.39	0.0011218	13.399	13.417	37.813	61.464	79.068	1403.1	-0.021657	0.00015414	0.67315	0.043114	4.7059	0.21250	46.479	49.965	119.21	34.246	47.960	500.20	5.5788	1.4844e-05	0.034149
450.00	9.2001	890.34	0.0011232	13.477	13.496	37.988	61.390	79.136	1400.4	-0.021461	0.00015322	0.67272	0.042891	4.8120	0.20781	46.492	49.982	119.07	34.362	48.177	500.41	5.5276	1.4878e-05	0.034312
451.00	9.4170	889.29	0.0011245	13.556	13.576	38.163	61.317	79.205	1397.6	-0.021263	0.00015231	0.67227	0.042669	4.9200	0.20325	46.504	49.998	118.92	34.479	48.396	500.62	5.4768	1.4912e-05	0.034476
452.00	9.6379	888.22	0.0011258	13.635	13.655	38.338	61.244	79.275	1394.9	-0.021064	0.00015140	0.67181	0.042447	5.0300	0.19881	46.516	50.014	118.78	34.596	48.617	500.82	5.4266	1.4946e-05	0.034641
453.00	9.8629	887.16	0.0011272	13.714	13.735	38.513	61.171	79.346	1392.1	-0.020862	0.00015051	0.67135	0.042224	5.1419	0.19448	46.529	50.030	118.63	34.714	48.840	501.01	5.3769	1.4980e-05	0.034807
454.00	10.092	886.09	0.0011286	13.793	13.814	38.687	61.099	79.418	1389.3	-0.020658	0.00014963	0.67087	0.042001	5.2558	0.19027	46.540	50.046	118.49	34.833	49.065	501.20	5.3277	1.5014e-05	0.034974
455.00	10.325	885.01	0.0011299	13.873	13.894	38.862	61.027	79.491	1386.5	-0.020452	0.00014876	0.67039	0.041777	5.3717	0.18616	46.552	50.061	118.35	34.953	49.293	501.39	5.2791	1.5048e-05	0.035143
456.00	10.563	883.93	0.0011313	13.952	13.974	39.036	60.955	79.564	1383.7	-0.020244	0.00014791	0.66989	0.041553	5.4897	0.18216	46.564	50.076	118.21	35.073	49.524	501.57	5.2310	1.5082e-05	0.035313
457.00	10.804	882.85	0.0011327	14.031	14.054	39.209	60.884	79.639	1380.8	-0.020034	0.00014706	0.66939	0.041329	5.6097	0.17826	46.575	50.091	118.07	35.194	49.756	501.74	5.1833	1.5116e-05	0.035484
458.00	11.050	881.76	0.0011341	14.111	14.133	39.383	60.813	79.715	1378.0	-0.019822	0.00014622	0.66888	0.041105	5.7319	0.17446	46.587	50.106	117.92	35.316	49.991	501.92	5.1362	1.5150e-05	0.035656
459.00	11.301	880.67	0.0011355	14.190	14.213	39.556	60.742	79.792	1375.1	-0.019607	0.00014539	0.66836	0.040880	5.8562	0.17076	46.598	50.120	117.78	35.438	50.229	502.08	5.0896	1.5184e-05	0.035829
460.00	11.556	879.57	0.0011369	14.269	14.293	39.729	60.671	79.869	1372.2	-0.019390	0.00014457	0.66783	0.040655	5.9826	0.16715	46.609	50.134	117.64	35.561	50.469	502.24	5.0434	1.5218e-05	0.036004
461.00	11.815	878.47	0.0011383	14.349	14.374	39.902	60.601	79.948	1369.2	-0.019171	0.00014376	0.66729	0.040430	6.1113	0.16363	46.619	50.148	117.50	35.684	50.711	502.40	4.9978	1.5252e-05	0.036180
462.00	12.079	877.36	0.0011398	14.429	14.454	40.075	60.531	80.028	1366.3	-0.018949	0.00014295	0.66674	0.040205	6.2421	0.16020	46.630	50.162	117.37	35.808	50.956	502.55	4.9526	1.5286e-05	0.036358
463.00	12.348	876.24	0.0011412	14.508	14.534	40.247	60.462	80.109	1363.3	-0.018725	0.00014216	0.66618	0.039979	6.3753	0.15686	46.640	50.176	117.23	35.933	51.203	502.70	4.9079	1.5320e-05	0.036536
464.00	12.621	875.12	0.0011427	14.588	14.614	40.419	60.393	80.191	1360.3	-0.018499	0.00014138	0.66561	0.039753	6.5107	0.15359	46.650	50.189	117.09	36.058	51.453	502.85	4.8637	1.5354e-05	0.036716
465.00	12.899	874.00	0.0011442	14.668	14.695	40.591	60.324	80.274	1357.3	-0.018270	0.00014060	0.66504	0.039527	6.6484	0.15041	46.660	50.202	116.95	36.184	51.705	502.98	4.8199	1.5388e-05	0.036898
466.00	13.181	872.87	0.0011456	14.748	14.775	40.763	60.255	80.358	1354.3	-0.018039	0.00013983	0.66445	0.039301	6.7884	0.14731	46.670	50.215	116.81	36.310	51.960	503.12	4.7766	1.5422e-05	0.037080
467.00	13.469	871.74	0.0011471	14.828	14.856	40.935	60.187	80.443	1351.2	-0.017805	0.00013907	0.66386	0.039074	6.9308	0.14428	46.680	50.227	116.68	36.437	52.217	503.24	4.7338	1.5457e-05	0.037264
468.00	13.761	870.60	0.0011486	14.908	14.937	41.106	60.119	80.530	1348.2	-0.017569	0.00013832	0.66326	0.038847	7.0757	0.14133	46.689	50.240	116.54	36.564	52.477	503.37	4.6914	1.5491e-05	0.037450
469.00	14.058	869.46	0.0011501	14.988	15.018	41.277	60.051	80.618	1345.1	-0.017330	0.00013758	0.66265	0.038620	7.2230	0.13845	46.699	50.252	116.40	36.693	52.739	503.49	4.6495	1.5525e-05	0.037636
470.00	14.361	868.31	0.0011517	15.068	15.098	41.448	59.984	80.706	1342.0	-0.017088	0.00013685	0.66203	0.038392	7.3727	0.13564	46.708	50.263	116.27	36.821	53.005	503.60	4.6080	1.5559e-05	0.037824
471.00	14.668	867.16	0.0011532	15.149	15.179	41.619	59.917	80.796	1338.8	-0.016844	0.00013612	0.66140	0.038165	7.5250	0.13289	46.717	50.275	116.13	36.950	53.272	503.71	4.5669	1.5593e-05	0.038014
472.00	14.980	866.00	0.0011547	15.229	15.261	41.789	59.850	80.887	1335.7	-0.016597	0.00013540	0.66076	0.037937	7.6798	0.13021	46.725	50.286	116.00	37.080	53.543	503.81	4.5263	1.5627e-05	0.038205
473.00	15.298	864.83	0.0011563	15.309	15.342	41.960	59.783	80.980	1332.5	-0.016347	0.00013469	0.66011	0.037709	7.8372	0.12760	46.734	50.297	115.86	37.210	53.816	503.91	4.4861	1.5661e-05	0.038397
474.00	15.621	863.66	0.0011579	15.390	15.423	42.130	59.717	81.073	1329.3	-0.016094	0.00013399	0.65946	0.037480	7.9972	0.12504	46.742	50.308	115.73	37.341	54.092	504.00	4.4463	1.5695e-05	0.038591
475.00	15.949	862.49	0.0011594	15.471	15.504	42.300	59.651	81.168	1326.1	-0.015838	0.00013329	0.65879	0.037252	8.1598	0.12255	46.750	50.318	115.59	37.472	54.371	504.09	4.4069	1.5729e-05	0.038787
476.00	16.282	861.31	0.0011610	15.551	15.586	42.470	59.586	81.265	1322.9	-0.015580	0.00013260	0.65812	0.037023	8.3251	0.12012	46.758	50.329	115.46	37.604	54.653	504.17	4.3680	1.5764e-05	0.038983
477.00	16.621	860.12	0.0011626	15.632	15.667	42.639	59.521	81.362	1319.7	-0.015318	0.00013192	0.65744	0.036794	8.4931	0.11774	46.766	50.338	115.33	37.737	54.938	504.25	4.3295	1.5798e-05	0.039182
478.00	16.965	858.93	0.0011642	15.713	15.749	42.809	59.456	81.461	1316.4	-0.015054	0.00013124	0.65675	0.036565	8.6639	0.11542	46.774	50.348	115.19	37.869	55.225	504.32	4.2914	1.5832e-05	0.039382
479.00	17.315	857.74	0.0011659	15.794	15.831	42.978	59.391	81.561	1313.1	-0.014786	0.00013057	0.65605	0.036335	8.8375	0.11315	46.781	50.358	115.06	38.003	55.516	504.39	4.2536	1.5866e-05	0.039583
480.00	17.671	856.54	0.0011675	15.875	15.913	43.147	59.327	81.662	1309.8	-0.014515	0.00012991	0.65535	0.036105	9.0139	0.11094	46.788	50.367	114.93	38.137	55.809	504.45	4.2163	1.5901e-05	0.039786
481.00	18.032	855.33	0.0011691	15.956	15.995	43.316	59.263	81.765	1306.5	-0.014241	0.00012925	0.65463	0.035876	9.1932	0.10878	46.795	50.376	114.79	38.271	56.106	504.51	4.1794	1.5935e-05	0.039990
482.00	18.398	854.12	0.0011708	16.037	16.077	43.485	59.199	81.870	1303.1	-0.013964	0.00012860	0.65391	0.035645	9.3753	0.10666	46.802	50.384	114.66	38.406	56.405	504.56	4.1429	1.5969e-05	0.040196
483.00	18.771	852.90	0.0011725	16.119	16.159	43.653	59.136	81.975	1299.8	-0.013683	0.00012796	0.65317	0.035415	9.5604	0.10460	46.808	50.392	114.53	38.541	56.708	504.61	4.1067	1.6004e-05	0.040404
484.00	19.149	851.68	0.0011742	16.200	16.241	43.822	59.073	82.082	1296.4	-0.013399	0.00012732	0.65243	0.035185	9.7485	0.10258	46.815	50.400	114.40	38.677	57.014	504.65	4.0710	1.6038e-05	0.040613
485.00	19.533	850.45	0.0011758	16.281	16.323	43.990	59.010	82.191	1293.0	-0.013112	0.00012669	0.65168	0.034954	9.9397	0.10061	46.821	50.408	114.27	38.814	57.323	504.68	4.0356	1.6072e-05	0.040824
486.00	19.924	849.21	0.0011776	16.363	16.406	44.158	58.948	82.301	1289.6	-0.012821	0.00012607	0.65093	0.034723	10.134	0.098679	46.827	50.415	114.14	38.951	57.636	504.71	4.0006	1.6107e-05	0.041036
487.00	20.320	847.97	0.0011793	16.445	16.488	44.326	58.886	82.413	1286.1	-0.012527	0.00012545	0.65016	0.034492	10.331	0.096795	46.832	50.423	114.01	39.088	57.951	504.74	3.9659	1.6141e-05	0.041251
488.00	20.722	846.73	0.0011810	16.526	16.571	44.494	58.824	82.526	1282.6	-0.012229	0.00012484	0.64939	0.034261	10.532	0.094952	46.838	50.429	113.88	39.226	58.271	504.76	3.9317	1.6176e-05	0.041467
489.00	21.131	845.48	0.0011828	16.608	16.654	44.662	58.763	82.640	1279.2	-0.011928	0.00012423	0.64860	0.034029	10.735	0.093151	46.843	50.436	113.75	39.364	58.593	504.77	3.8977	1.6210e-05	0.041684
490.00	21.545	844.22	0.0011845	16.690	16.737	44.830	58.702	82.757	1275.7	-0.011622	0.00012363	0.64781	0.033797	10.942	0.091390	46.848	50.442	113.62	39.503	58.919	504.78	3.8642	1.6245e-05	0.041903
491.00	21.966	842.96	0.0011863	16.772	16.820	44.997	58.641	82.875	1272.1	-0.011313	0.00012303	0.64701	0.033566	11.152	0.089668	46.853	50.448	113.49	39.643	59.249	504.78	3.8310	1.6280e-05	0.042125
492.00	22.393	841.69	0.0011881	16.854	16.903	45.164	58.580	82.994	1268.6	-0.011000	0.00012244	0.64620	0.033334	11.366	0.087984	46.857	50.454	113.36	39.783	59.582	504.78	3.7981	1.6314e-05	0.042347
493.00	22.827	840.41	0.0011899	16.937	16.986	45.331	58.520	83.115	1265.0	-0.010684	0.00012186	0.64539	0.033101	11.583	0.086336	46.862	50.459	113.23	39.923	59.920	504.77	3.7656	1.6349e-05	0.042572
494.00	23.267	839.13	0.0011917	17.019	17.070	45.499	58.461	83.238	1261.5	-0.010363	0.00012128	0.64456	0.032869	11.803	0.084725	46.866	50.464	113.10	40.064	60.260	504.76	3.7335	1.6384e-05	0.042799
495.00	23.714	837.84	0.0011935	17.102	17.153	45.665	58.401	83.363	1257.9	-0.010038	0.00012070	0.64373	0.032637	12.027	0.083149	46.869	50.469	112.97	40.205	60.605	504.74	3.7016	1.6419e-05	0.043027
496.00	24.167	836.55	0.0011954	17.184	17.237	45.832	58.342	83.489	1254.2	-0.0097087	0.00012013	0.64289	0.032404	12.254	0.081607	46.873	50.473	112.84	40.347	60.954	504.71	3.6701	1.6454e-05	0.043257
497.00	24.627	835.25	0.0011972	17.267	17.321	45.999	58.283	83.618	1250.6	-0.0093755	0.00011956	0.64204	0.032171	12.485	0.080098	46.876	50.477	112.71	40.490	61.306	504.68	3.6390	1.6489e-05	0.043489
498.00	25.093	833.94	0.0011991	17.350	17.404	46.165	58.225	83.748	1246.9	-0.0090380	0.00011900	0.64118	0.031938	12.719	0.078622	46.880	50.481	112.58	40.633	61.663	504.64	3.6082	1.6524e-05	0.043723
499.00	25.567	832.63	0.0012010	17.432	17.489	46.332	58.166	83.880	1243.3	-0.0086961	0.00011845	0.64031	0.031705	12.957	0.077178	46.882	50.484	112.46	40.776	62.023	504.60	3.5776	1.6559e-05	0.043959
500.00	26.047	831.31	0.0012029	17.515	17.573	46.498	58.109	84.013	1239.6	-0.0083497	0.00011790	0.63944	0.031472	13.199	0.075764	46.885	50.487	112.33	40.920	62.388	504.55	3.5474	1.6594e-05	0.044197
501.00	26.534	829.99	0.0012048	17.599	17.657	46.664	58.051	84.149	1235.8	-0.0079988	0.00011735	0.63855	0.031239	13.444	0.074380	46.888	50.490	112.20	41.065	62.758	504.49	3.5176	1.6629e-05	0.044437
502.00	27.028	828.66	0.0012068	17.682	17.741	46.831	57.994	84.287	1232.1	-0.0076433	0.00011681	0.63766	0.031005	13.694	0.073026	46.890	50.493	112.07	41.210	63.131	504.43	3.4880	1.6664e-05	0.044679
503.00	27.529	827.32	0.0012087	17.765	17.826	46.997	57.937	84.427	1228.3	-0.0072831	0.00011627	0.63676	0.030771	13.947	0.071700	46.892	50.495	111.94	41.355	63.509	504.36	3.4587	1.6699e-05	0.044923
504.00	28.038	825.98	0.0012107	17.849	17.911	47.163	57.880	84.568	1224.6	-0.0069181	0.00011574	0.63586	0.030538	14.204	0.070402	46.893	50.496	111.82	41.502	63.892	504.29	3.4298	1.6735e-05	0.045169
505.00	28.553	824.63	0.0012127	17.932	17.995	47.328	57.824	84.712	1220.8	-0.0065482	0.00011521	0.63494	0.030304	14.465	0.069131	46.895	50.498	111.69	41.648	64.279	504.21	3.4011	1.6770e-05	0.045418
506.00	29.076	823.27	0.0012147	18.016	18.080	47.494	57.768	84.858	1216.9	-0.0061733	0.00011469	0.63402	0.030070	14.730	0.067887	46.896	50.499	111.56	41.796	64.671	504.12	3.3728	1.6806e-05	0.045668
507.00	29.606	821.90	0.0012167	18.100	18.165	47.660	57.713	85.006	1213.1	-0.0057934	0.00011417	0.63308	0.029836	15.000	0.066668	46.897	50.500	111.44	41.944	65.068	504.03	3.3447	1.6841e-05	0.045921
508.00	30.144	820.53	0.0012187	18.183	18.251	47.825	57.658	85.157	1209.2	-0.0054083	0.00011365	0.63214	0.029602	15.273	0.065475	46.897	50.500	111.31	42.092	65.470	503.93	3.3169	1.6877e-05	0.046175
509.00	30.689	819.16	0.0012208	18.268	18.336	47.991	57.603	85.309	1205.4	-0.0050179	0.00011314	0.63119	0.029367	15.551	0.064306	46.898	50.500	111.18	42.241	65.877	503.82	3.2894	1.6913e-05	0.046433
510.00	31.241	817.77	0.0012228	18.352	18.421	48.156	57.548	85.464	1201.5	-0.0046221	0.00011263	0.63024	0.029133	15.833	0.063161	46.898	50.500	111.05	42.391	66.289	503.71	3.2622	1.6949e-05	0.046692
511.00	31.801	816.38	0.0012249	18.436	18.507	48.322	57.494	85.621	1197.5	-0.0042209	0.00011213	0.62927	0.028898	16.119	0.062040	46.897	50.499	110.93	42.541	66.707	503.59	3.2353	1.6985e-05	0.046954
512.00	32.369	814.98	0.0012270	18.520	18.593	48.487	57.441	85.781	1193.6	-0.0038141	0.00011163	0.62830	0.028664	16.409	0.060941	46.897	50.498	110.80	42.692	67.130	503.47	3.2086	1.7021e-05	0.047218
513.00	32.945	813.58	0.0012291	18.605	18.679	48.652	57.387	85.943	1189.6	-0.0034015	0.00011113	0.62732	0.028429	16.704	0.059865	46.896	50.496	110.67	42.843	67.558	503.34	3.1822	1.7057e-05	0.047484
514.00	33.528	812.16	0.0012313	18.690	18.765	48.817	57.334	86.107	1185.6	-0.0029832	0.00011064	0.62633	0.028194	17.004	0.058810	46.895	50.494	110.55	42.995	67.992	503.20	3.1561	1.7093e-05	0.047753
515.00	34.119	810.74	0.0012334	18.774	18.851	48.982	57.281	86.274	1181.6	-0.0025589	0.00011015	0.62533	0.027959	17.308	0.057776	46.894	50.492	110.42	43.148	68.432	503.06	3.1302	1.7129e-05	0.048025
516.00	34.719	809.32	0.0012356	18.859	18.938	49.147	57.229	86.444	1177.6	-0.0021285	0.00010966	0.62432	0.027724	17.617	0.056764	46.892	50.490	110.29	43.301	68.878	502.90	3.1046	1.7166e-05	0.048299
517.00	35.326	807.88	0.0012378	18.944	19.024	49.312	57.177	86.616	1173.6	-0.0016920	0.00010918	0.62331	0.027489	17.930	0.055771	46.890	50.487	110.17	43.455	69.330	502.75	3.0793	1.7202e-05	0.048575
518.00	35.941	806.44	0.0012400	19.030	19.111	49.477	57.125	86.791	1169.5	-0.0012492	0.00010870	0.62228	0.027254	18.249	0.054798	46.888	50.483	110.04	43.609	69.788	502.58	3.0542	1.7239e-05	0.048855
519.00	36.565	804.99	0.0012422	19.115	19.198	49.642	57.074	86.969	1165.4	-0.00079994	0.00010822	0.62125	0.027019	18.572	0.053845	46.886	50.479	109.91	43.765	70.252	502.41	3.0293	1.7275e-05	0.049137
520.00	37.197	803.53	0.0012445	19.200	19.285	49.807	57.023	87.149	1161.3	-0.00034412	0.00010775	0.62021	0.026784	18.900	0.052910	46.883	50.475	109.79	43.920	70.723	502.23	3.0047	1.7312e-05	0.049421
521.00	37.837	802.07	0.0012468	19.286	19.372	49.972	56.973	87.332	1157.2	0.00011842	0.00010728	0.61917	0.026549	19.233	0.051993	46.880	50.471	109.66	44.077	71.201	502.05	2.9804	1.7349e-05	0.049709
522.00	38.485	800.60	0.0012491	19.372	19.460	50.137	56.923	87.519	1153.0	0.00058780	0.00010682	0.61811	0.026314	19.571	0.051095	46.876	50.466	109.54	44.234	71.685	501.85	2.9563	1.7386e-05	0.049999
523.00	39.142	799.12	0.0012514	19.458	19.547	50.301	56.873	87.708	1148.9	0.0010642	0.00010635	0.61705	0.026078	19.915	0.050214	46.873	50.460	109.41	44.392	72.177	501.65	2.9324	1.7424e-05	0.050292
524.00	39.808	797.63	0.0012537	19.544	19.635	50.466	56.824	87.901	1144.7	0.0015477	0.00010589	0.61598	0.025843	20.264	0.049350	46.869	50.455	109.28	44.551	72.675	501.45	2.9088	1.7461e-05	0.050588
525.00	40.482	796.13	0.0012561	19.630	19.723	50.631	56.775	88.096	1140.5	0.0020385	0.00010544	0.61489	0.025608	20.617	0.048503	46.864	50.448	109.16	44.710	73.181	501.23	2.8853	1.7498e-05	0.050888
526.00	41.165	794.63	0.0012585	19.716	19.811	50.796	56.726	88.295	1136.2	0.0025368	0.00010498	0.61381	0.025372	20.977	0.047672	46.860	50.442	109.03	44.870	73.694	501.01	2.8622	1.7536e-05	0.051190
527.00	41.857	793.12	0.0012609	19.803	19.899	50.960	56.678	88.497	1132.0	0.0030427	0.00010453	0.61271	0.025137	21.342	0.046857	46.855	50.435	108.90	45.031	74.216	500.78	2.8392	1.7574e-05	0.051495
528.00	42.558	791.59	0.0012633	19.890	19.988	51.125	56.630	88.702	1127.7	0.0035564	0.00010408	0.61160	0.024901	21.712	0.046057	46.849	50.427	108.78	45.193	74.744	500.54	2.8165	1.7612e-05	0.051804
529.00	43.267	790.06	0.0012657	19.977	20.077	51.290	56.583	88.911	1123.4	0.0040780	0.00010364	0.61049	0.024666	22.088	0.045273	46.844	50.419	108.65	45.355	75.282	500.30	2.7939	1.7650e-05	0.052116
530.00	43.986	788.53	0.0012682	20.064	20.165	51.454	56.536	89.124	1119.1	0.0046078	0.00010319	0.60937	0.024430	22.470	0.044503	46.838	50.411	108.52	45.519	75.827	500.05	2.7716	1.7688e-05	0.052431
531.00	44.713	786.98	0.0012707	20.151	20.254	51.619	56.489	89.340	1114.7	0.0051459	0.00010275	0.60824	0.024195	22.858	0.043749	46.831	50.402	108.39	45.683	76.381	499.79	2.7495	1.7726e-05	0.052749
532.00	45.450	785.43	0.0012732	20.238	20.344	51.784	56.443	89.560	1110.4	0.0056925	0.00010231	0.60710	0.023960	23.252	0.043008	46.825	50.393	108.27	45.847	76.943	499.52	2.7277	1.7765e-05	0.053072
533.00	46.196	783.86	0.0012757	20.326	20.433	51.948	56.397	89.783	1106.0	0.0062478	0.00010188	0.60595	0.023724	23.651	0.042281	46.818	50.383	108.14	46.013	77.515	499.25	2.7060	1.7804e-05	0.053397
534.00	46.952	782.29	0.0012783	20.413	20.523	52.113	56.352	90.011	1101.6	0.0068121	0.00010144	0.60480	0.023489	24.057	0.041568	46.810	50.373	108.01	46.180	78.096	498.97	2.6845	1.7843e-05	0.053727
535.00	47.716	780.71	0.0012809	20.501	20.613	52.278	56.307	90.242	1097.1	0.0073854	0.00010101	0.60363	0.023253	24.469	0.040868	46.803	50.362	107.88	46.347	78.686	498.68	2.6632	1.7882e-05	0.054060
536.00	48.491	779.12	0.0012835	20.589	20.703	52.443	56.263	90.478	1092.7	0.0079680	0.00010059	0.60246	0.023018	24.887	0.040181	46.794	50.351	107.76	46.515	79.286	498.38	2.6421	1.7921e-05	0.054397
537.00	49.275	777.51	0.0012861	20.677	20.793	52.608	56.219	90.718	1088.2	0.0085602	0.00010016	0.60128	0.022783	25.312	0.039506	46.786	50.339	107.63	46.684	79.896	498.07	2.6212	1.7960e-05	0.054737
538.00	50.068	775.90	0.0012888	20.766	20.883	52.772	56.175	90.962	1083.7	0.0091622	9.9735e-05	0.60009	0.022547	25.744	0.038844	46.777	50.327	107.50	46.854	80.516	497.76	2.6005	1.8000e-05	0.055082
539.00	50.871	774.29	0.0012915	20.854	20.974	52.937	56.132	91.211	1079.2	0.0097741	9.9313e-05	0.59890	0.022312	26.182	0.038195	46.768	50.315	107.37	47.025	81.147	497.43	2.5800	1.8040e-05	0.055431
540.00	51.684	772.66	0.0012942	20.943	21.065	53.102	56.089	91.464	1074.6	0.010396	9.8894e-05	0.59769	0.022077	26.627	0.037556	46.758	50.302	107.24	47.197	81.789	497.10	2.5597	1.8080e-05	0.055784
541.00	52.507	771.02	0.0012970	21.032	21.156	53.267	56.047	91.722	1070.1	0.011029	9.8476e-05	0.59647	0.021842	27.078	0.036930	46.748	50.288	107.12	47.369	82.441	496.76	2.5396	1.8120e-05	0.056142
542.00	53.340	769.37	0.0012998	21.121	21.248	53.432	56.006	91.984	1065.5	0.011672	9.8061e-05	0.59525	0.021607	27.537	0.036315	46.738	50.274	106.99	47.543	83.105	496.41	2.5196	1.8161e-05	0.056504
543.00	54.183	767.71	0.0013026	21.210	21.339	53.598	55.964	92.252	1060.9	0.012327	9.7647e-05	0.59402	0.021372	28.003	0.035711	46.727	50.259	106.86	47.717	83.781	496.06	2.4998	1.8202e-05	0.056870
544.00	55.036	766.04	0.0013054	21.300	21.431	53.763	55.924	92.525	1056.2	0.012993	9.7235e-05	0.59278	0.021137	28.476	0.035117	46.716	50.244	106.73	47.893	84.469	495.69	2.4802	1.8242e-05	0.057241
545.00	55.899	764.36	0.0013083	21.390	21.523	53.928	55.884	92.802	1051.6	0.013670	9.6826e-05	0.59153	0.020902	28.956	0.034535	46.705	50.228	106.60	48.070	85.170	495.32	2.4608	1.8284e-05	0.057617
546.00	56.773	762.67	0.0013112	21.480	21.615	54.094	55.844	93.086	1046.9	0.014359	9.6418e-05	0.59027	0.020668	29.444	0.033962	46.693	50.212	106.47	48.247	85.883	494.93	2.4415	1.8325e-05	0.057998
547.00	57.657	760.97	0.0013141	21.570	21.708	54.259	55.805	93.374	1042.1	0.015060	9.6012e-05	0.58901	0.020433	29.940	0.033400	46.680	50.196	106.34	48.426	86.610	494.54	2.4224	1.8367e-05	0.058384
548.00	58.551	759.26	0.0013171	21.660	21.801	54.425	55.766	93.669	1037.4	0.015774	9.5607e-05	0.58773	0.020199	30.443	0.032848	46.667	50.178	106.21	48.605	87.350	494.14	2.4035	1.8409e-05	0.058775
549.00	59.456	757.54	0.0013201	21.751	21.894	54.590	55.728	93.969	1032.6	0.016501	9.5204e-05	0.58645	0.019964	30.955	0.032305	46.654	50.160	106.08	48.786	88.104	493.73	2.3847	1.8451e-05	0.059172
550.00	60.372	755.81	0.0013231	21.841	21.987	54.756	55.690	94.275	1027.9	0.017240	9.4803e-05	0.58516	0.019730	31.474	0.031772	46.641	50.142	105.95	48.968	88.873	493.31	2.3661	1.8494e-05	0.059574
551.00	61.298	754.06	0.0013261	21.932	22.081	54.922	55.653	94.588	1023.0	0.017994	9.4404e-05	0.58386	0.019496	32.002	0.031248	46.626	50.123	105.82	49.151	89.656	492.88	2.3476	1.8536e-05	0.059981
552.00	62.235	752.31	0.0013292	22.024	22.175	55.088	55.617	94.907	1018.2	0.018761	9.4006e-05	0.58255	0.019262	32.538	0.030734	46.612	50.103	105.68	49.335	90.455	492.44	2.3293	1.8580e-05	0.060395
553.00	63.184	750.54	0.0013324	22.115	22.269	55.254	55.581	95.232	1013.3	0.019542	9.3609e-05	0.58123	0.019028	33.082	0.030228	46.597	50.083	105.55	49.520	91.270	491.99	2.3111	1.8623e-05	0.060814
554.00	64.143	748.76	0.0013355	22.207	22.363	55.420	55.546	95.564	1008.4	0.020337	9.3214e-05	0.57990	0.018794	33.635	0.029731	46.581	50.062	105.42	49.706	92.101	491.54	2.2931	1.8667e-05	0.061240
555.00	65.113	746.97	0.0013387	22.299	22.458	55.587	55.511	95.904	1003.5	0.021148	9.2820e-05	0.57856	0.018561	34.198	0.029242	46.565	50.041	105.29	49.893	92.949	491.07	2.2753	1.8711e-05	0.061672
556.00	66.094	745.17	0.0013420	22.391	22.553	55.754	55.477	96.250	998.58	0.021974	9.2428e-05	0.57721	0.018327	34.769	0.028762	46.549	50.019	105.15	50.082	93.814	490.59	2.2575	1.8755e-05	0.062110
557.00	67.087	743.35	0.0013453	22.483	22.648	55.920	55.443	96.604	993.61	0.022816	9.2037e-05	0.57586	0.018094	35.349	0.028289	46.532	49.996	105.02	50.271	94.697	490.10	2.2400	1.8800e-05	0.062556
558.00	68.091	741.53	0.0013486	22.576	22.743	56.087	55.410	96.965	988.61	0.023675	9.1647e-05	0.57449	0.017861	35.939	0.027825	46.515	49.973	104.89	50.462	95.599	489.60	2.2225	1.8845e-05	0.063008
559.00	69.106	739.68	0.0013519	22.669	22.839	56.254	55.378	97.335	983.59	0.024550	9.1258e-05	0.57312	0.017628	36.538	0.027369	46.497	49.949	104.75	50.655	96.520	489.10	2.2052	1.8890e-05	0.063467
560.00	70.133	737.83	0.0013553	22.762	22.935	56.422	55.347	97.713	978.54	0.025442	9.0871e-05	0.57174	0.017396	37.147	0.026920	46.478	49.925	104.62	50.848	97.461	488.58	2.1881	1.8936e-05	0.063934
561.00	71.172	735.96	0.0013588	22.855	23.032	56.589	55.316	98.099	973.46	0.026352	9.0484e-05	0.57034	0.017163	37.766	0.026479	46.459	49.899	104.48	51.043	98.422	488.05	2.1710	1.8982e-05	0.064409
562.00	72.222	734.08	0.0013622	22.949	23.129	56.757	55.286	98.494	968.35	0.027280	9.0099e-05	0.56894	0.016931	38.395	0.026045	46.440	49.873	104.35	51.239	99.405	487.51	2.1541	1.9029e-05	0.064891
563.00	73.284	732.19	0.0013658	23.043	23.226	56.925	55.256	98.898	963.21	0.028226	8.9714e-05	0.56753	0.016699	39.035	0.025618	46.420	49.847	104.21	51.436	100.41	486.96	2.1373	1.9076e-05	0.065382
564.00	74.358	730.28	0.0013693	23.137	23.323	57.093	55.227	99.312	958.05	0.029192	8.9331e-05	0.56611	0.016467	39.685	0.025199	46.399	49.820	104.07	51.635	101.44	486.40	2.1207	1.9124e-05	0.065881
565.00	75.444	728.36	0.0013729	23.232	23.421	57.261	55.199	99.735	952.85	0.030178	8.8948e-05	0.56468	0.016236	40.346	0.024786	46.378	49.792	103.94	51.835	102.49	485.83	2.1041	1.9171e-05	0.066389
566.00	76.543	726.42	0.0013766	23.327	23.519	57.430	55.172	100.17	947.63	0.031185	8.8566e-05	0.56324	0.016005	41.018	0.024380	46.357	49.763	103.80	52.036	103.56	485.24	2.0877	1.9220e-05	0.066906
567.00	77.653	724.47	0.0013803	23.422	23.617	57.598	55.145	100.61	942.38	0.032212	8.8185e-05	0.56179	0.015774	41.701	0.023980	46.334	49.733	103.66	52.239	104.66	484.65	2.0714	1.9269e-05	0.067433
568.00	78.776	722.51	0.0013841	23.517	23.716	57.768	55.120	101.07	937.09	0.033261	8.7805e-05	0.56033	0.015543	42.396	0.023587	46.312	49.703	103.52	52.443	105.79	484.04	2.0552	1.9318e-05	0.067969
569.00	79.911	720.53	0.0013879	23.613	23.815	57.937	55.095	101.53	931.78	0.034333	8.7425e-05	0.55886	0.015313	43.103	0.023200	46.288	49.672	103.38	52.649	106.94	483.42	2.0392	1.9368e-05	0.068516
570.00	81.058	718.53	0.0013917	23.709	23.915	58.106	55.071	102.01	926.44	0.035428	8.7046e-05	0.55738	0.015082	43.822	0.022820	46.264	49.641	103.24	52.856	108.13	482.79	2.0232	1.9418e-05	0.069073
571.00	82.218	716.52	0.0013956	23.805	24.015	58.276	55.048	102.50	921.06	0.036546	8.6667e-05	0.55589	0.014853	44.553	0.022445	46.239	49.608	103.10	53.065	109.34	482.15	2.0073	1.9469e-05	0.069640
572.00	83.391	714.49	0.0013996	23.902	24.115	58.447	55.025	103.00	915.66	0.037689	8.6289e-05	0.55438	0.014623	45.297	0.022077	46.214	49.575	102.96	53.275	110.58	481.50	1.9916	1.9520e-05	0.070219
573.00	84.577	712.44	0.0014036	23.999	24.216	58.617	55.004	103.52	910.22	0.038858	8.5912e-05	0.55287	0.014394	46.053	0.021714	46.188	49.541	102.81	53.487	111.86	480.83	1.9760	1.9572e-05	0.070810
574.00	85.776	710.38	0.0014077	24.096	24.317	58.788	54.983	104.05	904.75	0.040052	8.5535e-05	0.55135	0.014165	46.823	0.021357	46.162	49.506	102.67	53.701	113.16	480.15	1.9604	1.9624e-05	0.071413
575.00	86.987	708.30	0.0014118	24.194	24.418	58.959	54.964	104.59	899.25	0.041274	8.5158e-05	0.54982	0.013937	47.607	0.021005	46.135	49.470	102.53	53.916	114.50	479.46	1.9450	1.9677e-05	0.072029
576.00	88.212	706.21	0.0014160	24.292	24.520	59.131	54.945	105.15	893.71	0.042524	8.4782e-05	0.54828	0.013708	48.404	0.020659	46.107	49.433	102.38	54.132	115.88	478.75	1.9296	1.9731e-05	0.072657
577.00	89.450	704.09	0.0014203	24.390	24.622	59.303	54.928	105.72	888.14	0.043802	8.4406e-05	0.54672	0.013481	49.215	0.020319	46.078	49.396	102.24	54.351	117.30	478.04	1.9144	1.9785e-05	0.073300
578.00	90.701	701.96	0.0014246	24.489	24.725	59.475	54.911	106.31	882.54	0.045111	8.4030e-05	0.54516	0.013253	50.042	0.019983	46.049	49.357	102.09	54.571	118.75	477.31	1.8992	1.9840e-05	0.073956
579.00	91.966	699.81	0.0014290	24.588	24.828	59.647	54.896	106.91	876.90	0.046450	8.3654e-05	0.54358	0.013026	50.883	0.019653	46.019	49.318	101.94	54.793	120.24	476.56	1.8841	1.9896e-05	0.074628
580.00	93.244	697.64	0.0014334	24.688	24.932	59.821	54.881	107.54	871.23	0.047822	8.3278e-05	0.54200	0.012800	51.739	0.019328	45.988	49.278	101.80	55.017	121.78	475.80	1.8691	1.9952e-05	0.075315
581.00	94.536	695.45	0.0014379	24.788	25.036	59.994	54.868	108.18	865.53	0.049226	8.2902e-05	0.54040	0.012574	52.611	0.019007	45.957	49.237	101.65	55.242	123.36	475.03	1.8542	2.0010e-05	0.076018
582.00	95.842	693.24	0.0014425	24.888	25.140	60.168	54.856	108.84	859.78	0.050665	8.2526e-05	0.53879	0.012348	53.499	0.018692	45.924	49.194	101.50	55.469	124.99	474.24	1.8394	2.0067e-05	0.076738
583.00	97.161	691.01	0.0014472	24.989	25.246	60.342	54.845	109.52	854.00	0.052140	8.2150e-05	0.53717	0.012123	54.404	0.018381	45.891	49.151	101.35	55.699	126.66	473.44	1.8247	2.0126e-05	0.077475
584.00	98.495	688.76	0.0014519	25.090	25.351	60.517	54.836	110.22	848.19	0.053651	8.1774e-05	0.53553	0.011898	55.326	0.018075	45.857	49.107	101.20	55.930	128.39	472.63	1.8100	2.0186e-05	0.078231
585.00	99.843	686.48	0.0014567	25.192	25.457	60.693	54.828	110.94	842.34	0.055200	8.1397e-05	0.53389	0.011673	56.265	0.017773	45.823	49.062	101.04	56.163	130.16	471.80	1.7954	2.0246e-05	0.079006
586.00	101.20	684.19	0.0014616	25.294	25.564	60.868	54.821	111.68	836.44	0.056790	8.1021e-05	0.53223	0.011449	57.222	0.017476	45.787	49.016	100.89	56.399	132.00	470.95	1.7809	2.0307e-05	0.079801
587.00	102.58	681.87	0.0014665	25.396	25.671	61.045	54.815	112.45	830.52	0.058420	8.0643e-05	0.53056	0.011226	58.198	0.017183	45.751	48.968	100.73	56.636	133.89	470.09	1.7665	2.0369e-05	0.080616
588.00	103.97	679.53	0.0014716	25.499	25.779	61.222	54.811	113.24	824.55	0.060093	8.0266e-05	0.52888	0.011003	59.193	0.016894	45.714	48.920	100.58	56.876	135.84	469.21	1.7521	2.0432e-05	0.081454
589.00	105.38	677.17	0.0014767	25.603	25.887	61.399	54.809	114.06	818.54	0.061810	7.9887e-05	0.52719	0.010781	60.207	0.016609	45.675	48.870	100.42	57.117	137.86	468.32	1.7378	2.0496e-05	0.082315
590.00	106.80	674.78	0.0014820	25.707	25.996	61.577	54.808	114.91	812.49	0.063573	7.9509e-05	0.52548	0.010559	61.242	0.016329	45.636	48.819	100.26	57.361	139.94	467.41	1.7235	2.0561e-05	0.083199
591.00	108.23	672.37	0.0014873	25.811	26.105	61.756	54.809	115.78	806.40	0.065385	7.9129e-05	0.52376	0.010338	62.297	0.016052	45.596	48.768	100.10	57.608	142.10	466.48	1.7093	2.0627e-05	0.084109
592.00	109.68	669.93	0.0014927	25.916	26.215	61.935	54.811	116.69	800.26	0.067246	7.8749e-05	0.52203	0.010117	63.373	0.015780	45.555	48.714	99.941	57.856	144.32	465.54	1.6952	2.0694e-05	0.085045
593.00	111.15	667.47	0.0014982	26.022	26.326	62.115	54.815	117.63	794.09	0.069159	7.8368e-05	0.52028	0.0098973	64.472	0.015511	45.513	48.660	99.779	58.107	146.63	464.58	1.6811	2.0763e-05	0.086009
594.00	112.63	664.97	0.0015038	26.128	26.437	62.296	54.822	118.60	787.87	0.071126	7.7985e-05	0.51852	0.0096779	65.593	0.015246	45.470	48.604	99.615	58.361	149.02	463.60	1.6671	2.0832e-05	0.087002
595.00	114.12	662.45	0.0015095	26.234	26.549	62.477	54.829	119.61	781.60	0.073150	7.7602e-05	0.51675	0.0094591	66.738	0.014984	45.426	48.547	99.450	58.617	151.50	462.60	1.6531	2.0903e-05	0.088026
596.00	115.63	659.91	0.0015154	26.342	26.662	62.660	54.839	120.65	775.29	0.075233	7.7218e-05	0.51496	0.0092410	67.907	0.014726	45.381	48.489	99.283	58.876	154.07	461.59	1.6392	2.0975e-05	0.089082
597.00	117.16	657.33	0.0015213	26.450	26.775	62.843	54.852	121.74	768.93	0.077378	7.6832e-05	0.51316	0.0090236	69.101	0.014472	45.334	48.429	99.115	59.137	156.74	460.55	1.6253	2.1048e-05	0.090172
598.00	118.70	654.72	0.0015274	26.558	26.889	63.026	54.866	122.87	762.53	0.079587	7.6446e-05	0.51135	0.0088069	70.321	0.014221	45.287	48.368	98.945	59.402	159.51	459.50	1.6114	2.1123e-05	0.091298
599.00	120.26	652.08	0.0015335	26.667	27.004	63.211	54.882	124.04	756.07	0.081863	7.6057e-05	0.50952	0.0085909	71.568	0.013973	45.238	48.306	98.773	59.669	162.40	458.42	1.5976	2.1199e-05	0.092461
600.00	121.83	649.41	0.0015399	26.777	27.119	63.396	54.902	125.26	749.57	0.084210	7.5667e-05	0.50767	0.0083756	72.842	0.013728	45.188	48.242	98.600	59.939	165.40	457.33	1.5838	2.1276e-05	0.093664
601.00	123.42	646.71	0.0015463	26.887	27.236	63.583	54.923	126.54	743.01	0.086631	7.5276e-05	0.50581	0.0081611	74.146	0.013487	45.137	48.176	98.425	60.212	168.52	456.21	1.5700	2.1356e-05	0.094909
602.00	125.03	643.97	0.0015529	26.999	27.353	63.770	54.947	127.86	736.39	0.089129	7.4883e-05	0.50394	0.0079474	75.479	0.013249	45.085	48.109	98.248	60.489	171.78	455.07	1.5563	2.1436e-05	0.096199
603.00	126.65	641.19	0.0015596	27.111	27.471	63.958	54.974	129.25	729.72	0.091709	7.4487e-05	0.50205	0.0077345	76.843	0.013014	45.031	48.040	98.069	60.768	175.17	453.91	1.5426	2.1519e-05	0.097535
604.00	128.29	638.38	0.0015665	27.223	27.590	64.148	55.004	130.70	722.99	0.094375	7.4090e-05	0.50014	0.0075224	78.239	0.012781	44.976	47.969	97.888	61.052	178.72	452.73	1.5289	2.1603e-05	0.098921
605.00	129.95	635.53	0.0015735	27.337	27.710	64.338	55.038	132.22	716.21	0.097132	7.3691e-05	0.49822	0.0073112	79.669	0.012552	44.919	47.897	97.705	61.338	182.43	451.52	1.5152	2.1690e-05	0.10036
606.00	131.62	632.64	0.0015807	27.451	27.831	64.530	55.074	133.80	709.36	0.099983	7.3289e-05	0.49628	0.0071008	81.134	0.012325	44.861	47.823	97.520	61.629	186.31	450.29	1.5015	2.1778e-05	0.10185
607.00	133.31	629.71	0.0015880	27.566	27.953	64.723	55.114	135.47	702.44	0.10294	7.2885e-05	0.49433	0.0068914	82.634	0.012102	44.802	47.747	97.332	61.923	190.38	449.04	1.4878	2.1868e-05	0.10341
608.00	135.02	626.74	0.0015956	27.682	28.075	64.917	55.158	137.22	695.45	0.10600	7.2477e-05	0.49235	0.0066830	84.173	0.011880	44.740	47.669	97.142	62.221	194.65	447.76	1.4742	2.1961e-05	0.10503
609.00	136.75	623.72	0.0016033	27.799	28.199	65.112	55.206	139.06	688.40	0.10917	7.2068e-05	0.49037	0.0064755	85.750	0.011662	44.678	47.589	96.950	62.524	199.13	446.45	1.4605	2.2056e-05	0.10671
610.00	138.49	620.65	0.0016112	27.917	28.324	65.309	55.258	141.00	681.27	0.11246	7.1655e-05	0.48836	0.0062690	87.369	0.011446	44.613	47.506	96.755	62.831	203.84	445.11	1.4468	2.2153e-05	0.10847
611.00	140.25	617.54	0.0016193	28.036	28.450	65.507	55.314	143.05	674.06	0.11588	7.1238e-05	0.48634	0.0060635	89.031	0.011232	44.547	47.422	96.557	63.142	208.81	443.75	1.4332	2.2253e-05	0.11030
612.00	142.03	614.37	0.0016277	28.156	28.578	65.706	55.376	145.22	666.76	0.11943	7.0819e-05	0.48430	0.0058591	90.738	0.011021	44.478	47.336	96.356	63.458	214.04	442.36	1.4194	2.2356e-05	0.11221
613.00	143.83	611.16	0.0016362	28.277	28.706	65.908	55.442	147.51	659.38	0.12313	7.0395e-05	0.48224	0.0056559	92.492	0.010812	44.408	47.247	96.153	63.779	219.57	440.93	1.4057	2.2461e-05	0.11421
614.00	145.64	607.88	0.0016451	28.399	28.836	66.111	55.515	149.95	651.91	0.12699	6.9967e-05	0.48017	0.0054538	94.295	0.010605	44.336	47.155	95.946	64.106	225.42	439.48	1.3920	2.2569e-05	0.11631
615.00	147.47	604.55	0.0016541	28.522	28.968	66.315	55.593	152.54	644.33	0.13101	6.9535e-05	0.47808	0.0052528	96.150	0.010400	44.262	47.062	95.736	64.438	231.63	437.99	1.3782	2.2681e-05	0.11850
616.00	149.33	601.15	0.0016635	28.647	29.101	66.522	55.679	155.31	636.65	0.13521	6.9099e-05	0.47597	0.0050531	98.060	0.010198	44.185	46.965	95.523	64.777	238.21	436.46	1.3644	2.2796e-05	0.12080
617.00	151.20	597.69	0.0016731	28.773	29.235	66.731	55.771	158.26	628.86	0.13960	6.8657e-05	0.47385	0.0048547	100.03	0.0099973	44.107	46.866	95.306	65.121	245.22	434.90	1.3505	2.2915e-05	0.12322
618.00	153.09	594.16	0.0016830	28.901	29.371	66.942	55.872	161.43	620.95	0.14419	6.8210e-05	0.47171	0.0046576	102.05	0.0097987	44.025	46.763	95.085	65.472	252.69	433.31	1.3365	2.3037e-05	0.12576
619.00	155.00	590.56	0.0016933	29.030	29.509	67.155	55.981	164.84	612.91	0.14901	6.7757e-05	0.46955	0.0044619	104.15	0.0096018	43.942	46.658	94.860	65.831	260.68	431.67	1.3225	2.3164e-05	0.12844
620.00	156.93	586.88	0.0017039	29.160	29.648	67.371	56.100	168.52	604.73	0.15407	6.7297e-05	0.46738	0.0042676	106.31	0.0094067	43.855	46.550	94.631	66.197	269.23	429.99	1.3085	2.3295e-05	0.13127
621.00	158.88	583.11	0.0017149	29.293	29.790	67.589	56.229	172.49	596.41	0.15938	6.6831e-05	0.46520	0.0040747	108.54	0.0092132	43.766	46.438	94.397	66.572	278.42	428.26	1.2943	2.3430e-05	0.13425
622.00	160.84	579.26	0.0017263	29.427	29.934	67.810	56.371	176.80	587.93	0.16498	6.6357e-05	0.46301	0.0038834	110.85	0.0090213	43.673	46.322	94.158	66.955	288.33	426.49	1.2801	2.3571e-05	0.13741
623.00	162.83	575.31	0.0017382	29.563	30.079	68.034	56.525	181.50	579.28	0.17089	6.5876e-05	0.46080	0.0036937	113.24	0.0088308	43.578	46.203	93.915	67.349	299.03	424.67	1.2657	2.3717e-05	0.14075
624.00	164.84	571.25	0.0017505	29.701	30.228	68.262	56.694	186.64	570.46	0.17713	6.5385e-05	0.45859	0.0035057	115.72	0.0086417	43.479	46.079	93.665	67.752	310.63	422.80	1.2513	2.3869e-05	0.14430
625.00	166.87	567.09	0.0017634	29.841	30.379	68.493	56.880	192.27	561.45	0.18373	6.4884e-05	0.45638	0.0033194	118.29	0.0084538	43.377	45.952	93.410	68.168	323.26	420.87	1.2367	2.4027e-05	0.14808
626.00	168.92	562.81	0.0017768	29.984	30.532	68.728	57.085	198.48	552.24	0.19073	6.4373e-05	0.45417	0.0031349	120.96	0.0082670	43.270	45.820	93.149	68.596	337.07	418.88	1.2220	2.4192e-05	0.15211
627.00	170.99	558.39	0.0017909	30.130	30.689	68.967	57.311	205.35	542.82	0.19816	6.3851e-05	0.45196	0.0029523	123.75	0.0080811	43.160	45.682	92.881	69.038	352.22	416.82	1.2071	2.4364e-05	0.15642
628.00	173.09	553.84	0.0018056	30.278	30.849	69.211	57.562	212.98	533.18	0.20605	6.3315e-05	0.44977	0.0027717	126.64	0.0078961	43.045	45.540	92.605	69.495	368.94	414.70	1.1920	2.4544e-05	0.16104
629.00	175.20	549.13	0.0018211	30.430	31.012	69.460	57.841	221.51	523.31	0.21447	6.2766e-05	0.44760	0.0025932	129.67	0.0077118	42.926	45.392	92.322	69.970	387.49	412.49	1.1767	2.4734e-05	0.16600
630.00	177.34	544.25	0.0018374	30.585	31.180	69.715	58.152	231.08	513.19	0.22343	6.2202e-05	0.44547	0.0024169	132.84	0.0075279	42.801	45.238	92.029	70.465	408.19	410.21	1.1612	2.4933e-05	0.17136
631.00	179.50	539.18	0.0018547	30.744	31.351	69.976	58.499	241.87	502.83	0.23301	6.1620e-05	0.44339	0.0022428	136.16	0.0073443	42.670	45.077	91.727	70.981	431.45	407.83	1.1455	2.5143e-05	0.17716
632.00	181.68	533.92	0.0018729	30.907	31.528	70.243	58.890	254.10	492.23	0.24324	6.1021e-05	0.44137	0.0020713	139.65	0.0071607	42.534	44.908	91.415	71.523	457.81	405.36	1.1294	2.5365e-05	0.18346
633.00	183.89	528.43	0.0018924	31.074	31.709	70.518	59.330	268.05	481.38	0.25418	6.0401e-05	0.43944	0.0019023	143.33	0.0069770	42.390	44.732	91.091	72.094	487.93	402.77	1.1130	2.5601e-05	0.19035
634.00	186.11	522.71	0.0019131	31.246	31.896	70.801	59.826	284.06	470.31	0.26588	5.9759e-05	0.43763	0.0017361	147.22	0.0067926	42.239	44.546	90.754	72.700	522.72	400.05	1.0962	2.5852e-05	0.19792
635.00	188.37	516.71	0.0019353	31.424	32.090	71.093	60.388	302.57	459.03	0.27841	5.9094e-05	0.43597	0.0015728	151.35	0.0066074	42.079	44.351	90.402	73.345	563.36	397.19	1.0790	2.6121e-05	0.20630
636.00	190.64	510.42	0.0019592	31.608	32.290	71.395	61.023	324.19	447.58	0.29182	5.8401e-05	0.43452	0.0014126	155.75	0.0064207	41.909	44.143	90.034	74.040	611.52	394.16	1.0612	2.6410e-05	0.21563
637.00	192.94	503.80	0.0019849	31.799	32.498	71.709	61.743	349.74	435.99	0.30619	5.7680e-05	0.43332	0.0012558	160.46	0.0062320	41.728	43.923	89.645	74.793	669.55	390.93	1.0428	2.6723e-05	0.22614
638.00	195.27	496.82	0.0020128	31.997	32.714	72.036	62.557	380.51	424.30	0.32162	5.6928e-05	0.43248	0.0011027	165.55	0.0060405	41.534	43.687	89.234	75.619	740.87	387.48	1.0236	2.7065e-05	0.23810
639.00	197.62	489.42	0.0020432	32.204	32.941	72.377	63.478	418.55	412.53	0.33828	5.6139e-05	0.43213	0.00095355	171.08	0.0058453	41.324	43.432	88.796	76.537	830.69	383.74	1.0035	2.7441e-05	0.25192
640.00	200.00	481.53	0.0020767	32.422	33.180	72.737	64.521	467.36	400.66	0.35642	5.5307e-05	0.43252	0.00080882	177.15	0.0056451	41.095	43.156	88.324	77.576	947.36	379.64	0.98222	2.7860e-05	0.26818
